X	Y	C	Z	T	Intensity	BG	MX
437.000	728.000	3	1	1	224.667	99.821	108.547
437.000	729.000	3	1	1	207.727	99.821	108.547
437.000	730.000	3	1	1	226.253	99.821	108.547
437.000	731.000	3	1	1	214.017	99.821	108.547
437.000	732.000	3	1	1	216.664	99.821	108.547
437.000	733.000	3	1	1	244.117	99.821	108.547
437.000	734.000	3	1	1	255.435	99.821	108.547
437.000	735.000	3	1	1	240.816	99.821	108.547
437.707	735.707	3	1	1	263.396	99.821	108.547
438.000	736.663	3	1	1	258.642	99.821	108.547
438.518	737.518	3	1	1	249.611	99.821	108.547
439.000	738.395	3	1	1	245.771	99.821	108.547
439.336	739.336	3	1	1	216.574	99.821	108.547
440.085	740.000	3	1	1	193.184	99.821	108.547
441.000	740.403	3	1	1	188.286	99.821	108.547
441.802	741.000	3	1	1	189.101	99.821	108.547
442.000	741.980	3	1	1	192.342	99.821	108.547
443.000	742.000	3	1	1	228.496	99.821	108.547
444.000	742.000	3	1	1	248.085	99.821	108.547
444.000	743.000	3	1	1	272.915	99.821	108.547
444.707	743.707	3	1	1	281.493	99.821	108.547
445.663	744.000	3	1	1	282.504	99.821	108.547
446.518	744.518	3	1	1	267.521	99.821	108.547
447.395	745.000	3	1	1	257.326	99.821	108.547
448.336	745.336	3	1	1	236.558	99.821	108.547
449.058	746.029	3	1	1	207.399	99.821	108.547
449.952	746.476	3	1	1	217.994	99.821	108.547
450.847	746.923	3	1	1	227.101	99.821	108.547
451.844	747.000	3	1	1	233.459	99.821	108.547
452.625	747.625	3	1	1	248.972	99.821	108.547
453.552	748.000	3	1	1	230.789	99.821	108.547
454.000	748.894	3	1	1	218.794	99.821	108.547
454.994	749.000	3	1	1	211.743	99.821	108.547
455.994	749.000	3	1	1	197.420	99.821	108.547
456.704	749.704	3	1	1	175.104	99.821	108.547
457.411	750.411	3	1	1	176.552	99.821	108.547
458.157	751.078	3	1	1	177.716	99.821	108.547
459.051	751.526	3	1	1	183.849	99.821	108.547
459.945	751.973	3	1	1	195.171	99.821	108.547
460.945	752.000	3	1	1	225.069	99.821	108.547
461.679	752.679	3	1	1	219.291	99.821	108.547
462.386	753.386	3	1	1	219.671	99.821	108.547
463.176	754.000	3	1	1	198.816	99.821	108.547
464.000	754.566	3	1	1	186.587	99.821	108.547
464.901	755.000	3	1	1	188.376	99.821	108.547
465.901	755.000	3	1	1	181.333	99.821	108.547
466.000	755.995	3	1	1	182.563	99.821	108.547
467.000	756.000	3	1	1	190.760	99.821	108.547
467.707	756.707	3	1	1	191.293	99.821	108.547
468.663	757.000	3	1	1	197.393	99.821	108.547
469.000	757.942	3	1	1	216.604	99.821	108.547
469.677	758.677	3	1	1	215.898	99.821	108.547
470.624	759.000	3	1	1	215.629	99.821	108.547
471.494	759.494	3	1	1	219.256	99.821	108.547
472.201	760.201	3	1	1	238.094	99.821	108.547
472.908	760.908	3	1	1	243.709	99.821	108.547
473.000	761.904	3	1	1	239.886	99.821	108.547
473.657	762.657	3	1	1	224.179	99.821	108.547
474.000	763.597	3	1	1	215.663	99.821	108.547
474.476	764.476	3	1	1	205.380	99.821	108.547
475.000	765.328	3	1	1	223.618	99.821	108.547
475.286	766.286	3	1	1	232.035	99.821	108.547
475.993	766.993	3	1	1	245.216	99.821	108.547
476.700	767.700	3	1	1	246.110	99.821	108.547
477.000	768.654	3	1	1	239.315	99.821	108.547
477.513	769.513	3	1	1	225.093	99.821	108.547
478.220	770.220	3	1	1	258.333	99.821	108.547
478.927	770.927	3	1	1	232.079	99.821	108.547
479.634	771.634	3	1	1	241.542	99.821	108.547
480.565	772.000	3	1	1	237.080	99.821	108.547
481.000	772.900	3	1	1	243.015	99.821	108.547
481.995	773.000	3	1	1	243.763	99.821	108.547
482.705	773.705	3	1	1	253.625	99.821	108.547
483.660	774.000	3	1	1	254.797	99.821	108.547
484.516	774.516	3	1	1	232.238	99.821	108.547
485.392	775.000	3	1	1	224.378	99.821	108.547
486.334	775.334	3	1	1	220.805	99.821	108.547
487.080	776.000	3	1	1	215.811	99.821	108.547
488.080	776.000	3	1	1	218.689	99.821	108.547
489.077	776.077	3	1	1	254.358	99.821	108.547
489.784	776.784	3	1	1	241.096	99.821	108.547
490.761	777.000	3	1	1	239.879	99.821	108.547
491.577	777.577	3	1	1	242.709	99.821	108.547
492.484	778.000	3	1	1	232.881	99.821	108.547
493.400	778.400	3	1	1	241.909	99.821	108.547
494.200	779.000	3	1	1	232.543	99.821	108.547
495.200	779.000	3	1	1	225.768	99.821	108.547
496.183	779.183	3	1	1	239.301	99.821	108.547
496.890	779.890	3	1	1	221.067	99.821	108.547
497.884	780.000	3	1	1	223.653	99.821	108.547
498.884	780.000	3	1	1	203.879	99.821	108.547
499.000	780.993	3	1	1	195.945	99.821	108.547
499.704	781.704	3	1	1	202.282	99.821	108.547
500.531	782.266	3	1	1	225.959	99.821	108.547
501.425	782.713	3	1	1	256.061	99.821	108.547
502.320	783.160	3	1	1	289.062	99.821	108.547
503.214	783.607	3	1	1	306.539	99.821	108.547
504.090	784.090	3	1	1	287.568	99.821	108.547
504.797	784.797	3	1	1	294.977	99.821	108.547
505.504	785.504	3	1	1	279.729	99.821	108.547
506.211	786.211	3	1	1	275.688	99.821	108.547
506.918	786.918	3	1	1	242.657	99.821	108.547
507.000	787.915	3	1	1	237.644	99.821	108.547
507.996	788.000	3	1	1	208.642	99.821	108.547
508.705	788.705	3	1	1	199.054	99.821	108.547
509.000	789.661	3	1	1	184.324	99.821	108.547
509.941	790.000	3	1	1	189.112	99.821	108.547
510.000	790.998	3	1	1	181.284	99.821	108.547
511.000	791.000	3	1	1	179.141	99.821	108.547
511.707	791.707	3	1	1	189.509	99.821	108.547
512.414	792.414	3	1	1	197.265	99.821	108.547
513.225	793.000	3	1	1	205.235	99.821	108.547
514.204	793.204	3	1	1	211.355	99.821	108.547
514.911	793.911	3	1	1	219.537	99.821	108.547
515.907	794.000	3	1	1	212.451	99.821	108.547
516.659	794.659	3	1	1	199.080	99.821	108.547
