X	Y	C	Z	T	Intensity	BG	MX
82.833	114.500	2	1	1	114.734	103.941	124.032
82.219	115.289	2	1	1	113.715	103.941	124.032
81.605	116.079	2	1	1	115.583	103.941	124.032
80.992	116.868	2	1	1	119.285	103.941	124.032
80.378	117.657	2	1	1	113.575	103.941	124.032
79.764	118.447	2	1	1	113.501	103.941	124.032
79.150	119.236	2	1	1	115.103	103.941	124.032
78.536	120.025	2	1	1	116.384	103.941	124.032
77.922	120.815	2	1	1	114.332	103.941	124.032
77.308	121.604	2	1	1	117.319	103.941	124.032
76.694	122.394	2	1	1	116.371	103.941	124.032
76.080	123.183	2	1	1	116.842	103.941	124.032
75.466	123.972	2	1	1	114.272	103.941	124.032
74.852	124.762	2	1	1	111.416	103.941	124.032
74.238	125.551	2	1	1	113.312	103.941	124.032
73.624	126.340	2	1	1	116.880	103.941	124.032
73.120	127.204	2	1	1	115.026	103.941	124.032
72.644	128.083	2	1	1	109.949	103.941	124.032
72.169	128.963	2	1	1	113.658	103.941	124.032
71.693	129.843	2	1	1	108.073	103.941	124.032
71.218	130.722	2	1	1	108.277	103.941	124.032
70.742	131.602	2	1	1	107.742	103.941	124.032
70.267	132.482	2	1	1	111.179	103.941	124.032
69.791	133.362	2	1	1	114.745	103.941	124.032
69.316	134.241	2	1	1	109.852	103.941	124.032
68.840	135.121	2	1	1	104.386	103.941	124.032
68.364	136.001	2	1	1	101.309	103.941	124.032
67.889	136.880	2	1	1	110.090	103.941	124.032
67.413	137.760	2	1	1	112.136	103.941	124.032
66.938	138.640	2	1	1	115.551	103.941	124.032
66.420	139.495	2	1	1	115.647	103.941	124.032
65.890	140.343	2	1	1	113.795	103.941	124.032
65.360	141.191	2	1	1	117.595	103.941	124.032
64.830	142.039	2	1	1	110.801	103.941	124.032
64.300	142.887	2	1	1	115.182	103.941	124.032
63.770	143.735	2	1	1	114.912	103.941	124.032
63.240	144.583	2	1	1	110.407	103.941	124.032
62.710	145.431	2	1	1	108.115	103.941	124.032
62.180	146.279	2	1	1	106.574	103.941	124.032
61.650	147.127	2	1	1	104.998	103.941	124.032
61.120	147.975	2	1	1	107.626	103.941	124.032
60.590	148.823	2	1	1	112.271	103.941	124.032
60.120	149.706	2	1	1	109.333	103.941	124.032
59.897	150.680	2	1	1	113.163	103.941	124.032
59.674	151.655	2	1	1	109.310	103.941	124.032
59.451	152.630	2	1	1	113.362	103.941	124.032
59.228	153.605	2	1	1	109.290	103.941	124.032
59.005	154.580	2	1	1	108.574	103.941	124.032
58.782	155.555	2	1	1	113.308	103.941	124.032
58.559	156.529	2	1	1	113.532	103.941	124.032
58.336	157.504	2	1	1	114.495	103.941	124.032
58.113	158.479	2	1	1	111.661	103.941	124.032
57.890	159.454	2	1	1	115.812	103.941	124.032
57.667	160.429	2	1	1	114.032	103.941	124.032
57.444	161.404	2	1	1	112.366	103.941	124.032
57.271	162.389	2	1	1	113.070	103.941	124.032
57.422	163.377	2	1	1	112.994	103.941	124.032
57.572	164.366	2	1	1	111.968	103.941	124.032
57.723	165.354	2	1	1	111.239	103.941	124.032
57.873	166.343	2	1	1	110.557	103.941	124.032
58.024	167.331	2	1	1	110.657	103.941	124.032
58.175	168.320	2	1	1	112.112	103.941	124.032
58.325	169.309	2	1	1	110.500	103.941	124.032
58.476	170.297	2	1	1	113.220	103.941	124.032
58.626	171.286	2	1	1	111.904	103.941	124.032
58.777	172.274	2	1	1	108.857	103.941	124.032
58.927	173.263	2	1	1	111.809	103.941	124.032
59.078	174.252	2	1	1	106.981	103.941	124.032
59.323	175.221	2	1	1	109.555	103.941	124.032
59.698	176.148	2	1	1	113.297	103.941	124.032
60.073	177.075	2	1	1	115.285	103.941	124.032
60.448	178.002	2	1	1	114.419	103.941	124.032
60.823	178.930	2	1	1	110.716	103.941	124.032
61.197	179.857	2	1	1	111.716	103.941	124.032
61.572	180.784	2	1	1	117.182	103.941	124.032
61.947	181.711	2	1	1	120.396	103.941	124.032
62.322	182.638	2	1	1	117.545	103.941	124.032
62.697	183.565	2	1	1	115.967	103.941	124.032
63.071	184.492	2	1	1	122.261	103.941	124.032
63.446	185.419	2	1	1	123.238	103.941	124.032
63.821	186.346	2	1	1	116.047	103.941	124.032
64.196	187.274	2	1	1	115.748	103.941	124.032
64.570	188.201	2	1	1	119.644	103.941	124.032
64.945	189.128	2	1	1	124.351	103.941	124.032
65.320	190.055	2	1	1	124.258	103.941	124.032
65.669	190.992	2	1	1	118.988	103.941	124.032
65.993	191.938	2	1	1	123.731	103.941	124.032
66.317	192.884	2	1	1	119.379	103.941	124.032
66.642	193.830	2	1	1	116.425	103.941	124.032
66.966	194.776	2	1	1	122.054	103.941	124.032
67.290	195.722	2	1	1	123.390	103.941	124.032
67.615	196.668	2	1	1	122.546	103.941	124.032
67.939	197.614	2	1	1	125.766	103.941	124.032
68.263	198.560	2	1	1	118.285	103.941	124.032
68.588	199.506	2	1	1	124.168	103.941	124.032
68.912	200.452	2	1	1	124.436	103.941	124.032
69.236	201.398	2	1	1	120.678	103.941	124.032
69.551	202.347	2	1	1	125.947	103.941	124.032
69.826	203.308	2	1	1	131.995	103.941	124.032
70.101	204.270	2	1	1	132.728	103.941	124.032
70.376	205.231	2	1	1	129.945	103.941	124.032
70.650	206.193	2	1	1	135.791	103.941	124.032
70.925	207.154	2	1	1	127.509	103.941	124.032
71.200	208.116	2	1	1	121.222	103.941	124.032
71.474	209.077	2	1	1	122.072	103.941	124.032
71.793	210.025	2	1	1	126.447	103.941	124.032
72.115	210.972	2	1	1	126.890	103.941	124.032
72.438	211.918	2	1	1	133.614	103.941	124.032
72.761	212.865	2	1	1	141.061	103.941	124.032
73.083	213.811	2	1	1	139.173	103.941	124.032
73.406	214.758	2	1	1	138.526	103.941	124.032
73.729	215.704	2	1	1	132.297	103.941	124.032
74.051	216.651	2	1	1	133.360	103.941	124.032
74.374	217.597	2	1	1	135.958	103.941	124.032
74.697	218.544	2	1	1	131.002	103.941	124.032
75.019	219.490	2	1	1	129.975	103.941	124.032
75.342	220.437	2	1	1	125.901	103.941	124.032
75.665	221.383	2	1	1	129.040	103.941	124.032
75.987	222.330	2	1	1	126.330	103.941	124.032
76.310	223.276	2	1	1	126.293	103.941	124.032
76.638	224.221	2	1	1	131.530	103.941	124.032
76.972	225.164	2	1	1	122.835	103.941	124.032
77.306	226.106	2	1	1	120.442	103.941	124.032
77.641	227.049	2	1	1	124.640	103.941	124.032
77.975	227.991	2	1	1	118.589	103.941	124.032
78.310	228.933	2	1	1	114.749	103.941	124.032
78.644	229.876	2	1	1	124.581	103.941	124.032
78.979	230.818	2	1	1	121.970	103.941	124.032
79.313	231.761	2	1	1	121.234	103.941	124.032
79.647	232.703	2	1	1	119.953	103.941	124.032
79.982	233.646	2	1	1	118.221	103.941	124.032
80.290	234.597	2	1	1	118.399	103.941	124.032
80.564	235.558	2	1	1	116.670	103.941	124.032
80.839	236.520	2	1	1	121.429	103.941	124.032
81.114	237.482	2	1	1	122.982	103.941	124.032
81.388	238.443	2	1	1	124.262	103.941	124.032
81.663	239.405	2	1	1	127.479	103.941	124.032
81.938	240.366	2	1	1	124.150	103.941	124.032
82.213	241.328	2	1	1	117.431	103.941	124.032
82.487	242.289	2	1	1	124.748	103.941	124.032
82.762	243.251	2	1	1	133.106	103.941	124.032
83.187	244.156	2	1	1	127.494	103.941	124.032
83.661	245.037	2	1	1	126.907	103.941	124.032
84.135	245.917	2	1	1	126.427	103.941	124.032
84.609	246.798	2	1	1	124.319	103.941	124.032
85.083	247.678	2	1	1	122.201	103.941	124.032
85.557	248.558	2	1	1	121.833	103.941	124.032
86.031	249.439	2	1	1	125.819	103.941	124.032
86.505	250.319	2	1	1	130.502	103.941	124.032
86.979	251.200	2	1	1	122.618	103.941	124.032
87.454	252.080	2	1	1	123.275	103.941	124.032
87.928	252.961	2	1	1	125.769	103.941	124.032
88.402	253.841	2	1	1	122.935	103.941	124.032
88.876	254.722	2	1	1	126.792	103.941	124.032
89.350	255.602	2	1	1	129.493	103.941	124.032
89.824	256.483	2	1	1	127.007	103.941	124.032
90.361	257.326	2	1	1	122.281	103.941	124.032
90.900	258.169	2	1	1	125.014	103.941	124.032
91.438	259.012	2	1	1	130.770	103.941	124.032
91.976	259.854	2	1	1	128.952	103.941	124.032
92.515	260.697	2	1	1	124.975	103.941	124.032
93.053	261.540	2	1	1	118.694	103.941	124.032
93.591	262.382	2	1	1	120.300	103.941	124.032
94.130	263.225	2	1	1	118.275	103.941	124.032
94.668	264.068	2	1	1	115.022	103.941	124.032
95.207	264.910	2	1	1	114.113	103.941	124.032
95.745	265.753	2	1	1	118.273	103.941	124.032
96.283	266.596	2	1	1	117.212	103.941	124.032
96.822	267.439	2	1	1	114.341	103.941	124.032
97.360	268.281	2	1	1	114.130	103.941	124.032
98.085	268.970	2	1	1	118.504	103.941	124.032
98.864	269.597	2	1	1	115.442	103.941	124.032
99.643	270.224	2	1	1	119.118	103.941	124.032
100.422	270.851	2	1	1	125.419	103.941	124.032
101.202	271.477	2	1	1	126.285	103.941	124.032
101.981	272.104	2	1	1	120.942	103.941	124.032
102.760	272.731	2	1	1	120.643	103.941	124.032
103.539	273.358	2	1	1	121.541	103.941	124.032
104.319	273.984	2	1	1	124.983	103.941	124.032
105.098	274.611	2	1	1	116.666	103.941	124.032
105.877	275.238	2	1	1	119.340	103.941	124.032
106.656	275.865	2	1	1	117.180	103.941	124.032
107.435	276.491	2	1	1	118.473	103.941	124.032
108.215	277.118	2	1	1	120.890	103.941	124.032
108.994	277.745	2	1	1	121.016	103.941	124.032
109.773	278.372	2	1	1	120.642	103.941	124.032
110.552	278.999	2	1	1	119.521	103.941	124.032
111.331	279.625	2	1	1	122.795	103.941	124.032
112.111	280.252	2	1	1	125.302	103.941	124.032
112.884	280.886	2	1	1	117.373	103.941	124.032
113.578	281.606	2	1	1	118.915	103.941	124.032
114.271	282.327	2	1	1	121.976	103.941	124.032
114.965	283.047	2	1	1	119.740	103.941	124.032
115.659	283.767	2	1	1	115.584	103.941	124.032
116.352	284.488	2	1	1	114.360	103.941	124.032
117.046	285.208	2	1	1	117.287	103.941	124.032
117.740	285.928	2	1	1	118.346	103.941	124.032
118.433	286.649	2	1	1	114.417	103.941	124.032
119.127	287.369	2	1	1	114.391	103.941	124.032
119.820	288.089	2	1	1	115.298	103.941	124.032
120.514	288.810	2	1	1	115.715	103.941	124.032
121.208	289.530	2	1	1	113.603	103.941	124.032
121.989	290.154	2	1	1	112.660	103.941	124.032
122.824	290.704	2	1	1	114.724	103.941	124.032
123.660	291.253	2	1	1	118.277	103.941	124.032
124.496	291.802	2	1	1	117.368	103.941	124.032
125.331	292.351	2	1	1	119.746	103.941	124.032
126.167	292.900	2	1	1	118.001	103.941	124.032
127.003	293.450	2	1	1	117.954	103.941	124.032
127.839	293.999	2	1	1	117.983	103.941	124.032
128.674	294.548	2	1	1	119.838	103.941	124.032
129.510	295.097	2	1	1	117.577	103.941	124.032
130.346	295.646	2	1	1	119.846	103.941	124.032
131.181	296.195	2	1	1	114.029	103.941	124.032
132.017	296.745	2	1	1	117.181	103.941	124.032
132.853	297.294	2	1	1	119.850	103.941	124.032
133.682	297.853	2	1	1	115.622	103.941	124.032
134.507	298.417	2	1	1	118.846	103.941	124.032
135.333	298.982	2	1	1	123.958	103.941	124.032
136.158	299.547	2	1	1	123.144	103.941	124.032
136.983	300.111	2	1	1	128.746	103.941	124.032
137.809	300.676	2	1	1	132.494	103.941	124.032
138.634	301.241	2	1	1	138.331	103.941	124.032
139.459	301.805	2	1	1	135.796	103.941	124.032
140.285	302.370	2	1	1	131.576	103.941	124.032
141.110	302.935	2	1	1	129.840	103.941	124.032
141.935	303.500	2	1	1	136.247	103.941	124.032
142.760	304.064	2	1	1	132.341	103.941	124.032
143.586	304.629	2	1	1	130.547	103.941	124.032
144.411	305.194	2	1	1	132.799	103.941	124.032
145.236	305.758	2	1	1	127.647	103.941	124.032
146.061	306.324	2	1	1	128.336	103.941	124.032
146.883	306.893	2	1	1	123.854	103.941	124.032
147.705	307.463	2	1	1	127.981	103.941	124.032
148.527	308.032	2	1	1	123.499	103.941	124.032
149.350	308.601	2	1	1	123.396	103.941	124.032
150.172	309.170	2	1	1	122.065	103.941	124.032
150.994	309.739	2	1	1	119.316	103.941	124.032
151.816	310.309	2	1	1	115.785	103.941	124.032
152.638	310.878	2	1	1	117.209	103.941	124.032
153.461	311.447	2	1	1	123.790	103.941	124.032
154.283	312.016	2	1	1	123.288	103.941	124.032
155.105	312.585	2	1	1	122.390	103.941	124.032
155.927	313.155	2	1	1	124.339	103.941	124.032
156.749	313.724	2	1	1	120.149	103.941	124.032
157.572	314.293	2	1	1	120.754	103.941	124.032
158.394	314.862	2	1	1	122.018	103.941	124.032
159.254	315.372	2	1	1	124.558	103.941	124.032
160.153	315.810	2	1	1	125.639	103.941	124.032
161.052	316.249	2	1	1	123.996	103.941	124.032
161.950	316.687	2	1	1	124.054	103.941	124.032
162.849	317.126	2	1	1	121.370	103.941	124.032
163.748	317.564	2	1	1	124.549	103.941	124.032
164.647	318.002	2	1	1	126.992	103.941	124.032
165.546	318.441	2	1	1	127.948	103.941	124.032
166.444	318.879	2	1	1	128.598	103.941	124.032
167.343	319.318	2	1	1	132.189	103.941	124.032
168.242	319.756	2	1	1	130.959	103.941	124.032
169.141	320.195	2	1	1	133.874	103.941	124.032
170.039	320.633	2	1	1	131.825	103.941	124.032
170.938	321.071	2	1	1	126.902	103.941	124.032
171.837	321.510	2	1	1	133.589	103.941	124.032
172.718	321.983	2	1	1	131.859	103.941	124.032
173.543	322.547	2	1	1	133.196	103.941	124.032
174.369	323.112	2	1	1	131.067	103.941	124.032
175.194	323.677	2	1	1	131.947	103.941	124.032
176.019	324.241	2	1	1	123.646	103.941	124.032
176.845	324.806	2	1	1	122.905	103.941	124.032
177.670	325.371	2	1	1	122.101	103.941	124.032
178.495	325.935	2	1	1	123.377	103.941	124.032
179.321	326.500	2	1	1	120.064	103.941	124.032
180.146	327.065	2	1	1	118.723	103.941	124.032
180.971	327.629	2	1	1	116.447	103.941	124.032
181.796	328.194	2	1	1	111.124	103.941	124.032
182.622	328.759	2	1	1	113.317	103.941	124.032
183.447	329.323	2	1	1	118.391	103.941	124.032
184.272	329.888	2	1	1	119.761	103.941	124.032
185.098	330.453	2	1	1	110.940	103.941	124.032
186.025	330.827	2	1	1	111.786	103.941	124.032
186.960	331.183	2	1	1	118.348	103.941	124.032
187.894	331.539	2	1	1	121.543	103.941	124.032
188.829	331.895	2	1	1	120.262	103.941	124.032
189.763	332.251	2	1	1	117.918	103.941	124.032
190.698	332.607	2	1	1	125.375	103.941	124.032
191.632	332.963	2	1	1	129.563	103.941	124.032
192.566	333.319	2	1	1	129.899	103.941	124.032
193.501	333.675	2	1	1	119.908	103.941	124.032
194.435	334.031	2	1	1	125.713	103.941	124.032
195.370	334.387	2	1	1	131.139	103.941	124.032
196.304	334.743	2	1	1	131.706	103.941	124.032
197.239	335.099	2	1	1	132.766	103.941	124.032
198.173	335.455	2	1	1	125.202	103.941	124.032
199.108	335.811	2	1	1	124.975	103.941	124.032
200.042	336.167	2	1	1	124.856	103.941	124.032
200.977	336.523	2	1	1	124.538	103.941	124.032
201.911	336.879	2	1	1	126.004	103.941	124.032
202.846	337.235	2	1	1	125.672	103.941	124.032
203.780	337.591	2	1	1	124.310	103.941	124.032
204.715	337.947	2	1	1	126.263	103.941	124.032
205.649	338.303	2	1	1	118.720	103.941	124.032
206.630	338.500	2	1	1	121.607	103.941	124.032
207.630	338.500	2	1	1	118.787	103.941	124.032
208.630	338.500	2	1	1	118.988	103.941	124.032
209.630	338.500	2	1	1	126.439	103.941	124.032
210.630	338.500	2	1	1	130.843	103.941	124.032
211.630	338.500	2	1	1	131.714	103.941	124.032
212.630	338.500	2	1	1	132.154	103.941	124.032
213.630	338.500	2	1	1	136.078	103.941	124.032
214.630	338.500	2	1	1	130.676	103.941	124.032
215.630	338.500	2	1	1	122.540	103.941	124.032
216.630	338.500	2	1	1	128.468	103.941	124.032
217.630	338.500	2	1	1	132.251	103.941	124.032
218.630	338.500	2	1	1	133.118	103.941	124.032
219.630	338.500	2	1	1	132.120	103.941	124.032
220.630	338.500	2	1	1	128.168	103.941	124.032
221.630	338.500	2	1	1	123.608	103.941	124.032
222.630	338.500	2	1	1	123.607	103.941	124.032
223.630	338.500	2	1	1	124.500	103.941	124.032
224.630	338.500	2	1	1	122.571	103.941	124.032
225.630	338.500	2	1	1	118.608	103.941	124.032
226.630	338.500	2	1	1	118.179	103.941	124.032
227.629	338.468	2	1	1	118.775	103.941	124.032
228.599	338.225	2	1	1	120.049	103.941	124.032
229.569	337.983	2	1	1	117.286	103.941	124.032
230.540	337.740	2	1	1	116.855	103.941	124.032
231.510	337.498	2	1	1	121.228	103.941	124.032
232.480	337.255	2	1	1	125.876	103.941	124.032
233.450	337.012	2	1	1	126.741	103.941	124.032
234.420	336.770	2	1	1	120.668	103.941	124.032
235.390	336.527	2	1	1	122.768	103.941	124.032
236.360	336.285	2	1	1	118.580	103.941	124.032
237.331	336.042	2	1	1	120.176	103.941	124.032
238.301	335.800	2	1	1	127.214	103.941	124.032
239.271	335.557	2	1	1	132.483	103.941	124.032
240.241	335.315	2	1	1	128.063	103.941	124.032
241.211	335.072	2	1	1	120.387	103.941	124.032
242.181	334.830	2	1	1	126.515	103.941	124.032
243.151	334.587	2	1	1	125.783	103.941	124.032
244.122	334.345	2	1	1	122.906	103.941	124.032
245.092	334.102	2	1	1	124.145	103.941	124.032
246.062	333.860	2	1	1	126.123	103.941	124.032
247.032	333.617	2	1	1	122.713	103.941	124.032
248.002	333.374	2	1	1	123.266	103.941	124.032
248.972	333.132	2	1	1	129.346	103.941	124.032
249.942	332.889	2	1	1	125.806	103.941	124.032
250.913	332.647	2	1	1	119.451	103.941	124.032
251.866	332.347	2	1	1	119.344	103.941	124.032
252.789	331.961	2	1	1	121.455	103.941	124.032
253.712	331.575	2	1	1	118.952	103.941	124.032
254.634	331.189	2	1	1	121.931	103.941	124.032
255.557	330.804	2	1	1	121.501	103.941	124.032
256.479	330.418	2	1	1	125.901	103.941	124.032
257.402	330.032	2	1	1	118.564	103.941	124.032
258.325	329.646	2	1	1	129.916	103.941	124.032
259.247	329.260	2	1	1	134.877	103.941	124.032
260.170	328.874	2	1	1	130.293	103.941	124.032
261.092	328.489	2	1	1	129.892	103.941	124.032
262.015	328.103	2	1	1	137.448	103.941	124.032
262.937	327.717	2	1	1	143.187	103.941	124.032
263.860	327.331	2	1	1	139.104	103.941	124.032
264.783	326.945	2	1	1	143.478	103.941	124.032
265.705	326.560	2	1	1	142.017	103.941	124.032
266.628	326.174	2	1	1	134.756	103.941	124.032
267.550	325.788	2	1	1	127.537	103.941	124.032
268.473	325.402	2	1	1	131.055	103.941	124.032
269.396	325.016	2	1	1	133.360	103.941	124.032
270.318	324.631	2	1	1	132.580	103.941	124.032
271.241	324.245	2	1	1	126.913	103.941	124.032
272.163	323.859	2	1	1	129.188	103.941	124.032
273.086	323.473	2	1	1	133.579	103.941	124.032
274.008	323.087	2	1	1	129.966	103.941	124.032
274.931	322.702	2	1	1	132.650	103.941	124.032
275.854	322.316	2	1	1	134.525	103.941	124.032
276.776	321.930	2	1	1	135.378	103.941	124.032
277.699	321.544	2	1	1	137.156	103.941	124.032
278.621	321.158	2	1	1	131.708	103.941	124.032
279.512	320.704	2	1	1	136.002	103.941	124.032
280.377	320.203	2	1	1	135.800	103.941	124.032
281.243	319.702	2	1	1	131.880	103.941	124.032
282.108	319.201	2	1	1	133.574	103.941	124.032
282.974	318.699	2	1	1	131.194	103.941	124.032
283.839	318.198	2	1	1	129.725	103.941	124.032
284.704	317.697	2	1	1	126.104	103.941	124.032
285.570	317.196	2	1	1	121.773	103.941	124.032
286.435	316.695	2	1	1	129.841	103.941	124.032
287.301	316.194	2	1	1	125.842	103.941	124.032
288.166	315.693	2	1	1	124.321	103.941	124.032
289.032	315.192	2	1	1	120.727	103.941	124.032
289.897	314.691	2	1	1	122.986	103.941	124.032
290.762	314.190	2	1	1	127.281	103.941	124.032
291.628	313.689	2	1	1	128.927	103.941	124.032
292.493	313.188	2	1	1	128.365	103.941	124.032
293.359	312.687	2	1	1	129.527	103.941	124.032
294.224	312.186	2	1	1	128.070	103.941	124.032
295.090	311.685	2	1	1	123.872	103.941	124.032
295.955	311.184	2	1	1	124.291	103.941	124.032
296.820	310.683	2	1	1	124.365	103.941	124.032
297.686	310.182	2	1	1	123.944	103.941	124.032
298.502	309.604	2	1	1	126.269	103.941	124.032
299.286	308.983	2	1	1	121.216	103.941	124.032
300.071	308.363	2	1	1	122.454	103.941	124.032
300.855	307.743	2	1	1	127.282	103.941	124.032
301.640	307.123	2	1	1	122.978	103.941	124.032
302.424	306.503	2	1	1	122.060	103.941	124.032
303.209	305.883	2	1	1	126.767	103.941	124.032
303.994	305.263	2	1	1	121.753	103.941	124.032
304.778	304.643	2	1	1	118.669	103.941	124.032
305.563	304.023	2	1	1	119.711	103.941	124.032
306.347	303.403	2	1	1	119.860	103.941	124.032
307.132	302.783	2	1	1	120.929	103.941	124.032
307.916	302.163	2	1	1	123.030	103.941	124.032
308.701	301.543	2	1	1	123.537	103.941	124.032
309.486	300.923	2	1	1	119.898	103.941	124.032
310.270	300.303	2	1	1	117.509	103.941	124.032
311.055	299.683	2	1	1	116.808	103.941	124.032
311.839	299.063	2	1	1	120.204	103.941	124.032
312.624	298.443	2	1	1	121.329	103.941	124.032
313.408	297.822	2	1	1	118.064	103.941	124.032
314.109	297.109	2	1	1	120.747	103.941	124.032
314.798	296.385	2	1	1	121.220	103.941	124.032
315.487	295.660	2	1	1	124.229	103.941	124.032
316.176	294.935	2	1	1	122.075	103.941	124.032
316.865	294.210	2	1	1	125.065	103.941	124.032
317.555	293.486	2	1	1	127.550	103.941	124.032
318.244	292.761	2	1	1	125.737	103.941	124.032
318.933	292.036	2	1	1	123.900	103.941	124.032
319.622	291.312	2	1	1	117.780	103.941	124.032
320.311	290.587	2	1	1	117.501	103.941	124.032
321.000	289.862	2	1	1	116.809	103.941	124.032
321.689	289.138	2	1	1	121.307	103.941	124.032
322.378	288.413	2	1	1	123.430	103.941	124.032
323.067	287.688	2	1	1	116.454	103.941	124.032
323.756	286.963	2	1	1	120.472	103.941	124.032
324.445	286.239	2	1	1	118.355	103.941	124.032
325.134	285.514	2	1	1	117.143	103.941	124.032
325.823	284.789	2	1	1	123.049	103.941	124.032
326.512	284.065	2	1	1	119.687	103.941	124.032
327.201	283.340	2	1	1	115.409	103.941	124.032
327.890	282.615	2	1	1	111.586	103.941	124.032
328.401	281.755	2	1	1	112.789	103.941	124.032
328.875	280.875	2	1	1	111.197	103.941	124.032
329.349	279.994	2	1	1	110.409	103.941	124.032
329.823	279.114	2	1	1	108.593	103.941	124.032
330.297	278.233	2	1	1	113.732	103.941	124.032
330.771	277.353	2	1	1	110.438	103.941	124.032
331.246	276.473	2	1	1	109.458	103.941	124.032
331.720	275.592	2	1	1	110.141	103.941	124.032
332.194	274.712	2	1	1	109.552	103.941	124.032
332.668	273.831	2	1	1	112.381	103.941	124.032
333.142	272.951	2	1	1	111.836	103.941	124.032
333.616	272.070	2	1	1	111.394	103.941	124.032
334.090	271.190	2	1	1	114.424	103.941	124.032
334.564	270.309	2	1	1	114.990	103.941	124.032
335.038	269.429	2	1	1	112.881	103.941	124.032
335.512	268.548	2	1	1	115.363	103.941	124.032
335.987	267.668	2	1	1	112.804	103.941	124.032
336.461	266.787	2	1	1	111.356	103.941	124.032
336.935	265.907	2	1	1	112.613	103.941	124.032
337.372	265.008	2	1	1	112.990	103.941	124.032
337.609	264.036	2	1	1	113.555	103.941	124.032
337.847	263.065	2	1	1	113.967	103.941	124.032
338.084	262.093	2	1	1	111.365	103.941	124.032
338.321	261.122	2	1	1	114.311	103.941	124.032
338.558	260.150	2	1	1	111.259	103.941	124.032
338.796	259.179	2	1	1	113.635	103.941	124.032
339.033	258.207	2	1	1	114.602	103.941	124.032
339.270	257.236	2	1	1	109.409	103.941	124.032
339.507	256.264	2	1	1	112.374	103.941	124.032
339.744	255.293	2	1	1	112.310	103.941	124.032
339.982	254.322	2	1	1	112.550	103.941	124.032
340.219	253.350	2	1	1	114.960	103.941	124.032
340.456	252.379	2	1	1	113.275	103.941	124.032
340.693	251.407	2	1	1	111.474	103.941	124.032
340.842	250.418	2	1	1	111.219	103.941	124.032
340.863	249.419	2	1	1	113.137	103.941	124.032
340.883	248.419	2	1	1	112.902	103.941	124.032
340.904	247.419	2	1	1	111.715	103.941	124.032
340.924	246.419	2	1	1	112.449	103.941	124.032
340.945	245.419	2	1	1	116.285	103.941	124.032
340.966	244.420	2	1	1	114.756	103.941	124.032
340.986	243.420	2	1	1	114.861	103.941	124.032
341.007	242.420	2	1	1	116.465	103.941	124.032
341.027	241.420	2	1	1	123.632	103.941	124.032
341.048	240.420	2	1	1	123.213	103.941	124.032
341.069	239.421	2	1	1	117.713	103.941	124.032
341.089	238.421	2	1	1	119.441	103.941	124.032
341.110	237.421	2	1	1	120.357	103.941	124.032
341.130	236.421	2	1	1	116.995	103.941	124.032
341.151	235.422	2	1	1	112.633	103.941	124.032
341.151	234.422	2	1	1	114.693	103.941	124.032
341.088	233.423	2	1	1	115.530	103.941	124.032
341.025	232.426	2	1	1	117.490	103.941	124.032
340.961	231.428	2	1	1	116.917	103.941	124.032
340.898	230.430	2	1	1	114.023	103.941	124.032
340.835	229.432	2	1	1	113.254	103.941	124.032
340.772	228.434	2	1	1	116.202	103.941	124.032
340.709	227.436	2	1	1	118.960	103.941	124.032
340.645	226.438	2	1	1	116.469	103.941	124.032
340.582	225.440	2	1	1	114.107	103.941	124.032
340.519	224.441	2	1	1	117.282	103.941	124.032
340.456	223.444	2	1	1	118.448	103.941	124.032
340.392	222.446	2	1	1	122.304	103.941	124.032
340.329	221.448	2	1	1	123.053	103.941	124.032
340.266	220.450	2	1	1	118.827	103.941	124.032
340.203	219.452	2	1	1	116.775	103.941	124.032
340.140	218.454	2	1	1	118.971	103.941	124.032
340.076	217.456	2	1	1	120.810	103.941	124.032
340.013	216.458	2	1	1	124.762	103.941	124.032
339.902	215.464	2	1	1	121.080	103.941	124.032
339.778	214.471	2	1	1	121.476	103.941	124.032
339.654	213.479	2	1	1	124.757	103.941	124.032
339.530	212.487	2	1	1	121.638	103.941	124.032
339.741	211.510	2	1	1	120.302	103.941	124.032
340.051	210.559	2	1	1	123.464	103.941	124.032
340.361	209.608	2	1	1	119.683	103.941	124.032
340.672	208.657	2	1	1	122.236	103.941	124.032
340.982	207.707	2	1	1	123.631	103.941	124.032
341.292	206.756	2	1	1	125.025	103.941	124.032
341.602	205.805	2	1	1	114.435	103.941	124.032
341.912	204.854	2	1	1	112.751	103.941	124.032
342.222	203.904	2	1	1	117.554	103.941	124.032
342.532	202.953	2	1	1	116.936	103.941	124.032
342.842	202.002	2	1	1	114.440	103.941	124.032
343.152	201.052	2	1	1	117.718	103.941	124.032
343.312	200.065	2	1	1	112.060	103.941	124.032
343.403	199.069	2	1	1	119.670	103.941	124.032
343.493	198.073	2	1	1	117.140	103.941	124.032
343.584	197.077	2	1	1	112.067	103.941	124.032
343.674	196.081	2	1	1	115.642	103.941	124.032
343.644	195.081	2	1	1	117.209	103.941	124.032
343.110	194.236	2	1	1	118.544	103.941	124.032
342.576	193.390	2	1	1	113.657	103.941	124.032
342.042	192.545	2	1	1	119.941	103.941	124.032
341.508	191.700	2	1	1	120.525	103.941	124.032
340.974	190.854	2	1	1	117.820	103.941	124.032
341.004	189.854	2	1	1	119.212	103.941	124.032
341.371	188.924	2	1	1	119.342	103.941	124.032
341.737	187.994	2	1	1	115.005	103.941	124.032
342.104	187.063	2	1	1	116.576	103.941	124.032
342.470	186.133	2	1	1	117.355	103.941	124.032
342.837	185.202	2	1	1	117.746	103.941	124.032
343.203	184.272	2	1	1	117.532	103.941	124.032
343.570	183.342	2	1	1	114.667	103.941	124.032
343.936	182.411	2	1	1	115.817	103.941	124.032
344.000	181.413	2	1	1	111.998	103.941	124.032
344.000	180.413	2	1	1	110.375	103.941	124.032
344.000	179.413	2	1	1	114.572	103.941	124.032
344.000	178.413	2	1	1	113.341	103.941	124.032
344.000	177.413	2	1	1	114.636	103.941	124.032
343.343	176.659	2	1	1	117.804	103.941	124.032
342.600	175.990	2	1	1	109.364	103.941	124.032
341.857	175.321	2	1	1	113.016	103.941	124.032
341.113	174.652	2	1	1	116.568	103.941	124.032
340.370	173.983	2	1	1	111.663	103.941	124.032
339.627	173.314	2	1	1	114.168	103.941	124.032
338.921	172.605	2	1	1	116.339	103.941	124.032
338.444	171.727	2	1	1	118.819	103.941	124.032
337.966	170.849	2	1	1	121.068	103.941	124.032
337.488	169.970	2	1	1	119.704	103.941	124.032
337.010	169.092	2	1	1	119.716	103.941	124.032
336.532	168.213	2	1	1	116.979	103.941	124.032
336.054	167.335	2	1	1	114.688	103.941	124.032
335.577	166.456	2	1	1	115.756	103.941	124.032
335.099	165.578	2	1	1	118.069	103.941	124.032
334.621	164.699	2	1	1	114.575	103.941	124.032
334.143	163.821	2	1	1	114.972	103.941	124.032
333.665	162.942	2	1	1	119.409	103.941	124.032
333.188	162.064	2	1	1	122.107	103.941	124.032
332.710	161.186	2	1	1	119.962	103.941	124.032
332.232	160.307	2	1	1	117.505	103.941	124.032
331.754	159.429	2	1	1	116.821	103.941	124.032
331.276	158.550	2	1	1	116.491	103.941	124.032
330.798	157.672	2	1	1	120.504	103.941	124.032
330.321	156.793	2	1	1	126.656	103.941	124.032
329.843	155.915	2	1	1	123.574	103.941	124.032
329.365	155.036	2	1	1	121.836	103.941	124.032
328.887	154.158	2	1	1	122.390	103.941	124.032
328.409	153.279	2	1	1	119.623	103.941	124.032
327.855	152.447	2	1	1	120.139	103.941	124.032
327.228	151.668	2	1	1	124.865	103.941	124.032
326.600	150.890	2	1	1	126.389	103.941	124.032
325.973	150.111	2	1	1	135.365	103.941	124.032
325.345	149.333	2	1	1	130.081	103.941	124.032
324.718	148.554	2	1	1	145.008	103.941	124.032
324.090	147.775	2	1	1	143.786	103.941	124.032
323.463	146.997	2	1	1	143.642	103.941	124.032
322.835	146.218	2	1	1	137.024	103.941	124.032
322.208	145.440	2	1	1	133.521	103.941	124.032
321.580	144.661	2	1	1	130.794	103.941	124.032
320.952	143.882	2	1	1	134.440	103.941	124.032
320.325	143.104	2	1	1	132.922	103.941	124.032
319.697	142.325	2	1	1	134.698	103.941	124.032
319.070	141.547	2	1	1	138.444	103.941	124.032
318.442	140.768	2	1	1	129.320	103.941	124.032
317.815	139.989	2	1	1	133.012	103.941	124.032
317.187	139.211	2	1	1	130.924	103.941	124.032
316.560	138.432	2	1	1	130.513	103.941	124.032
315.932	137.654	2	1	1	128.256	103.941	124.032
315.305	136.875	2	1	1	129.608	103.941	124.032
314.677	136.096	2	1	1	129.250	103.941	124.032
314.050	135.318	2	1	1	135.366	103.941	124.032
313.422	134.539	2	1	1	132.243	103.941	124.032
312.795	133.761	2	1	1	130.568	103.941	124.032
312.167	132.982	2	1	1	131.620	103.941	124.032
311.540	132.203	2	1	1	130.099	103.941	124.032
310.912	131.425	2	1	1	132.581	103.941	124.032
310.285	130.646	2	1	1	134.943	103.941	124.032
309.659	129.866	2	1	1	136.261	103.941	124.032
309.035	129.085	2	1	1	133.016	103.941	124.032
308.410	128.304	2	1	1	129.133	103.941	124.032
307.785	127.523	2	1	1	127.982	103.941	124.032
307.161	126.742	2	1	1	124.626	103.941	124.032
306.536	125.961	2	1	1	123.914	103.941	124.032
305.911	125.181	2	1	1	129.866	103.941	124.032
305.286	124.400	2	1	1	123.039	103.941	124.032
304.662	123.619	2	1	1	120.768	103.941	124.032
304.037	122.838	2	1	1	119.348	103.941	124.032
303.412	122.057	2	1	1	123.003	103.941	124.032
302.788	121.276	2	1	1	116.852	103.941	124.032
302.163	120.495	2	1	1	119.997	103.941	124.032
301.538	119.715	2	1	1	124.267	103.941	124.032
300.914	118.934	2	1	1	116.287	103.941	124.032
300.289	118.153	2	1	1	122.468	103.941	124.032
299.664	117.372	2	1	1	118.670	103.941	124.032
299.040	116.591	2	1	1	119.345	103.941	124.032
298.415	115.810	2	1	1	125.504	103.941	124.032
297.639	115.179	2	1	1	121.338	103.941	124.032
296.784	114.660	2	1	1	115.791	103.941	124.032
295.930	114.141	2	1	1	116.562	103.941	124.032
295.075	113.622	2	1	1	119.359	103.941	124.032
294.220	113.102	2	1	1	116.078	103.941	124.032
293.366	112.583	2	1	1	120.620	103.941	124.032
292.511	112.064	2	1	1	121.107	103.941	124.032
291.657	111.545	2	1	1	119.055	103.941	124.032
290.802	111.025	2	1	1	118.768	103.941	124.032
289.947	110.506	2	1	1	118.722	103.941	124.032
289.093	109.987	2	1	1	123.437	103.941	124.032
288.238	109.467	2	1	1	121.285	103.941	124.032
287.384	108.948	2	1	1	116.558	103.941	124.032
286.529	108.429	2	1	1	119.756	103.941	124.032
285.674	107.910	2	1	1	117.857	103.941	124.032
284.820	107.390	2	1	1	117.263	103.941	124.032
283.965	106.871	2	1	1	122.681	103.941	124.032
283.110	106.352	2	1	1	120.179	103.941	124.032
282.256	105.833	2	1	1	120.912	103.941	124.032
281.401	105.313	2	1	1	126.717	103.941	124.032
280.547	104.794	2	1	1	125.349	103.941	124.032
279.692	104.275	2	1	1	124.477	103.941	124.032
278.837	103.756	2	1	1	121.267	103.941	124.032
277.983	103.236	2	1	1	118.406	103.941	124.032
277.128	102.717	2	1	1	117.740	103.941	124.032
276.273	102.198	2	1	1	120.162	103.941	124.032
275.419	101.679	2	1	1	121.021	103.941	124.032
274.564	101.159	2	1	1	117.650	103.941	124.032
273.710	100.640	2	1	1	118.204	103.941	124.032
272.855	100.121	2	1	1	120.518	103.941	124.032
272.000	99.602	2	1	1	124.216	103.941	124.032
271.079	99.213	2	1	1	117.375	103.941	124.032
270.145	98.857	2	1	1	117.142	103.941	124.032
269.210	98.501	2	1	1	122.922	103.941	124.032
268.276	98.145	2	1	1	118.038	103.941	124.032
267.341	97.789	2	1	1	122.714	103.941	124.032
266.407	97.433	2	1	1	115.508	103.941	124.032
265.472	97.077	2	1	1	116.788	103.941	124.032
264.538	96.721	2	1	1	119.263	103.941	124.032
263.603	96.365	2	1	1	119.234	103.941	124.032
262.669	96.009	2	1	1	122.008	103.941	124.032
261.734	95.653	2	1	1	114.993	103.941	124.032
260.800	95.297	2	1	1	120.914	103.941	124.032
259.865	94.941	2	1	1	119.215	103.941	124.032
258.931	94.585	2	1	1	116.586	103.941	124.032
257.996	94.229	2	1	1	118.625	103.941	124.032
257.062	93.873	2	1	1	119.811	103.941	124.032
256.127	93.517	2	1	1	123.086	103.941	124.032
255.193	93.161	2	1	1	122.643	103.941	124.032
254.258	92.805	2	1	1	120.208	103.941	124.032
253.324	92.449	2	1	1	115.616	103.941	124.032
252.389	92.093	2	1	1	121.451	103.941	124.032
251.455	91.737	2	1	1	127.136	103.941	124.032
250.520	91.381	2	1	1	121.460	103.941	124.032
249.586	91.025	2	1	1	114.696	103.941	124.032
248.651	90.669	2	1	1	123.464	103.941	124.032
247.717	90.313	2	1	1	117.788	103.941	124.032
246.782	89.957	2	1	1	117.618	103.941	124.032
245.848	89.601	2	1	1	119.925	103.941	124.032
244.913	89.245	2	1	1	118.197	103.941	124.032
243.979	88.889	2	1	1	119.899	103.941	124.032
243.011	88.637	2	1	1	117.116	103.941	124.032
242.039	88.404	2	1	1	114.854	103.941	124.032
241.066	88.171	2	1	1	110.475	103.941	124.032
240.094	87.938	2	1	1	116.177	103.941	124.032
239.121	87.705	2	1	1	117.756	103.941	124.032
238.149	87.472	2	1	1	115.041	103.941	124.032
237.176	87.239	2	1	1	119.057	103.941	124.032
236.204	87.007	2	1	1	116.936	103.941	124.032
235.231	86.774	2	1	1	115.902	103.941	124.032
234.259	86.541	2	1	1	121.160	103.941	124.032
233.286	86.308	2	1	1	125.357	103.941	124.032
232.314	86.075	2	1	1	124.139	103.941	124.032
231.341	85.842	2	1	1	124.829	103.941	124.032
230.369	85.609	2	1	1	122.836	103.941	124.032
229.396	85.377	2	1	1	120.600	103.941	124.032
228.424	85.144	2	1	1	127.504	103.941	124.032
227.451	84.911	2	1	1	125.388	103.941	124.032
226.479	84.678	2	1	1	121.186	103.941	124.032
225.506	84.445	2	1	1	113.039	103.941	124.032
224.534	84.212	2	1	1	114.600	103.941	124.032
223.561	83.979	2	1	1	115.013	103.941	124.032
222.589	83.747	2	1	1	114.572	103.941	124.032
221.616	83.514	2	1	1	115.207	103.941	124.032
220.644	83.281	2	1	1	109.537	103.941	124.032
219.670	83.052	2	1	1	118.092	103.941	124.032
218.696	82.826	2	1	1	118.411	103.941	124.032
217.722	82.600	2	1	1	116.942	103.941	124.032
216.748	82.374	2	1	1	117.431	103.941	124.032
215.773	82.149	2	1	1	122.827	103.941	124.032
214.799	81.923	2	1	1	117.294	103.941	124.032
213.825	81.697	2	1	1	115.949	103.941	124.032
212.851	81.472	2	1	1	113.643	103.941	124.032
211.877	81.246	2	1	1	117.495	103.941	124.032
210.902	81.020	2	1	1	118.637	103.941	124.032
209.928	80.794	2	1	1	115.519	103.941	124.032
208.954	80.569	2	1	1	127.783	103.941	124.032
207.980	80.343	2	1	1	132.654	103.941	124.032
207.006	80.117	2	1	1	123.713	103.941	124.032
206.032	79.891	2	1	1	123.055	103.941	124.032
205.057	79.666	2	1	1	119.752	103.941	124.032
204.083	79.440	2	1	1	123.202	103.941	124.032
203.109	79.214	2	1	1	121.191	103.941	124.032
202.135	78.989	2	1	1	117.925	103.941	124.032
201.161	78.763	2	1	1	117.538	103.941	124.032
200.186	78.537	2	1	1	111.440	103.941	124.032
199.212	78.311	2	1	1	113.660	103.941	124.032
198.238	78.086	2	1	1	112.781	103.941	124.032
197.264	77.860	2	1	1	109.193	103.941	124.032
196.290	77.634	2	1	1	110.387	103.941	124.032
195.315	77.408	2	1	1	108.001	103.941	124.032
194.341	77.183	2	1	1	108.958	103.941	124.032
193.367	76.957	2	1	1	110.000	103.941	124.032
192.377	76.814	2	1	1	108.622	103.941	124.032
191.378	76.772	2	1	1	112.798	103.941	124.032
190.379	76.730	2	1	1	112.838	103.941	124.032
189.380	76.689	2	1	1	108.991	103.941	124.032
188.381	76.647	2	1	1	110.920	103.941	124.032
187.382	76.605	2	1	1	110.104	103.941	124.032
186.383	76.563	2	1	1	107.987	103.941	124.032
185.383	76.521	2	1	1	110.381	103.941	124.032
184.384	76.479	2	1	1	109.959	103.941	124.032
183.385	76.437	2	1	1	107.358	103.941	124.032
182.386	76.395	2	1	1	112.327	103.941	124.032
181.387	76.353	2	1	1	111.571	103.941	124.032
180.388	76.311	2	1	1	112.232	103.941	124.032
179.389	76.270	2	1	1	109.574	103.941	124.032
178.390	76.228	2	1	1	107.935	103.941	124.032
177.390	76.186	2	1	1	109.423	103.941	124.032
176.391	76.144	2	1	1	108.337	103.941	124.032
175.392	76.102	2	1	1	108.492	103.941	124.032
174.393	76.060	2	1	1	106.279	103.941	124.032
173.394	76.018	2	1	1	108.006	103.941	124.032
172.395	75.976	2	1	1	108.761	103.941	124.032
171.396	75.934	2	1	1	104.890	103.941	124.032
170.397	75.892	2	1	1	108.109	103.941	124.032
169.397	75.851	2	1	1	110.713	103.941	124.032
168.398	75.809	2	1	1	109.897	103.941	124.032
167.399	75.767	2	1	1	106.316	103.941	124.032
166.399	75.750	2	1	1	107.068	103.941	124.032
165.399	75.750	2	1	1	111.383	103.941	124.032
164.399	75.750	2	1	1	108.453	103.941	124.032
163.399	75.750	2	1	1	108.832	103.941	124.032
162.399	75.750	2	1	1	109.151	103.941	124.032
161.399	75.750	2	1	1	108.017	103.941	124.032
160.399	75.750	2	1	1	108.383	103.941	124.032
159.399	75.750	2	1	1	110.733	103.941	124.032
158.399	75.750	2	1	1	112.117	103.941	124.032
157.399	75.750	2	1	1	114.884	103.941	124.032
156.399	75.750	2	1	1	116.700	103.941	124.032
155.399	75.750	2	1	1	113.515	103.941	124.032
154.399	75.750	2	1	1	107.964	103.941	124.032
153.399	75.750	2	1	1	108.169	103.941	124.032
152.399	75.750	2	1	1	110.985	103.941	124.032
151.399	75.750	2	1	1	110.388	103.941	124.032
150.402	75.685	2	1	1	110.127	103.941	124.032
149.407	75.576	2	1	1	109.179	103.941	124.032
148.413	75.468	2	1	1	107.706	103.941	124.032
147.419	75.359	2	1	1	107.133	103.941	124.032
146.425	75.251	2	1	1	108.789	103.941	124.032
145.431	75.142	2	1	1	109.195	103.941	124.032
144.437	75.034	2	1	1	110.946	103.941	124.032
143.443	74.926	2	1	1	109.440	103.941	124.032
142.449	74.817	2	1	1	107.803	103.941	124.032
141.455	74.709	2	1	1	109.591	103.941	124.032
140.461	74.600	2	1	1	107.183	103.941	124.032
139.466	74.492	2	1	1	105.703	103.941	124.032
138.472	74.383	2	1	1	108.484	103.941	124.032
137.478	74.275	2	1	1	109.045	103.941	124.032
136.500	74.481	2	1	1	105.271	103.941	124.032
135.544	74.775	2	1	1	107.914	103.941	124.032
134.588	75.069	2	1	1	106.534	103.941	124.032
133.632	75.363	2	1	1	112.108	103.941	124.032
132.677	75.657	2	1	1	109.881	103.941	124.032
131.721	75.951	2	1	1	111.318	103.941	124.032
130.765	76.245	2	1	1	110.212	103.941	124.032
129.809	76.539	2	1	1	110.311	103.941	124.032
128.853	76.834	2	1	1	106.861	103.941	124.032
127.898	77.128	2	1	1	108.047	103.941	124.032
126.942	77.422	2	1	1	108.521	103.941	124.032
125.986	77.716	2	1	1	110.783	103.941	124.032
125.030	78.010	2	1	1	107.437	103.941	124.032
124.075	78.304	2	1	1	108.342	103.941	124.032
123.119	78.598	2	1	1	110.332	103.941	124.032
122.163	78.892	2	1	1	113.876	103.941	124.032
121.207	79.186	2	1	1	112.204	103.941	124.032
120.365	79.726	2	1	1	118.705	103.941	124.032
119.565	80.326	2	1	1	112.442	103.941	124.032
118.765	80.926	2	1	1	113.859	103.941	124.032
117.965	81.526	2	1	1	114.788	103.941	124.032
117.165	82.126	2	1	1	112.195	103.941	124.032
116.365	82.726	2	1	1	118.978	103.941	124.032
115.565	83.326	2	1	1	116.029	103.941	124.032
114.765	83.926	2	1	1	119.563	103.941	124.032
113.965	84.526	2	1	1	112.484	103.941	124.032
113.165	85.126	2	1	1	111.174	103.941	124.032
112.355	85.712	2	1	1	118.885	103.941	124.032
111.543	86.295	2	1	1	121.926	103.941	124.032
110.730	86.878	2	1	1	120.199	103.941	124.032
109.918	87.461	2	1	1	120.016	103.941	124.032
109.105	88.044	2	1	1	110.505	103.941	124.032
108.293	88.627	2	1	1	118.854	103.941	124.032
107.480	89.210	2	1	1	119.246	103.941	124.032
106.668	89.793	2	1	1	120.526	103.941	124.032
105.855	90.376	2	1	1	115.998	103.941	124.032
105.043	90.959	2	1	1	116.309	103.941	124.032
104.230	91.542	2	1	1	121.161	103.941	124.032
103.417	92.124	2	1	1	120.872	103.941	124.032
102.605	92.707	2	1	1	112.997	103.941	124.032
101.792	93.290	2	1	1	115.586	103.941	124.032
101.065	93.976	2	1	1	113.690	103.941	124.032
100.391	94.715	2	1	1	109.351	103.941	124.032
99.716	95.453	2	1	1	109.210	103.941	124.032
99.042	96.192	2	1	1	109.360	103.941	124.032
98.368	96.930	2	1	1	111.733	103.941	124.032
97.694	97.669	2	1	1	117.035	103.941	124.032
97.019	98.407	2	1	1	116.373	103.941	124.032
96.345	99.146	2	1	1	115.936	103.941	124.032
95.671	99.884	2	1	1	113.597	103.941	124.032
94.997	100.623	2	1	1	119.366	103.941	124.032
94.322	101.361	2	1	1	115.209	103.941	124.032
93.648	102.100	2	1	1	113.203	103.941	124.032
92.974	102.838	2	1	1	118.552	103.941	124.032
92.299	103.577	2	1	1	120.512	103.941	124.032
91.625	104.315	2	1	1	113.657	103.941	124.032
