X	Y	C	Z	T	Intensity	BG	MX
632.000	806.000	3	1	1	115.763	104.249	119.532
631.293	806.707	3	1	1	122.781	104.249	119.532
631.000	807.663	3	1	1	115.264	104.249	119.532
631.000	808.663	3	1	1	115.974	104.249	119.532
630.058	809.000	3	1	1	120.525	104.249	119.532
630.000	809.998	3	1	1	116.179	104.249	119.532
630.000	810.998	3	1	1	122.608	104.249	119.532
629.000	811.000	3	1	1	120.669	104.249	119.532
629.000	812.000	3	1	1	114.800	104.249	119.532
629.000	813.000	3	1	1	121.147	104.249	119.532
628.293	813.707	3	1	1	125.347	104.249	119.532
628.000	814.663	3	1	1	123.748	104.249	119.532
628.000	815.663	3	1	1	122.613	104.249	119.532
627.482	816.518	3	1	1	121.344	104.249	119.532
627.000	817.395	3	1	1	122.529	104.249	119.532
626.204	818.000	3	1	1	114.870	104.249	119.532
626.000	818.979	3	1	1	117.110	104.249	119.532
626.000	819.979	3	1	1	117.222	104.249	119.532
626.000	820.979	3	1	1	133.674	104.249	119.532
626.000	821.979	3	1	1	135.667	104.249	119.532
625.000	822.000	3	1	1	125.142	104.249	119.532
625.000	823.000	3	1	1	119.169	104.249	119.532
625.000	824.000	3	1	1	117.352	104.249	119.532
625.000	825.000	3	1	1	114.992	104.249	119.532
625.000	826.000	3	1	1	115.675	104.249	119.532
624.293	826.707	3	1	1	116.130	104.249	119.532
624.000	827.663	3	1	1	121.451	104.249	119.532
624.000	828.663	3	1	1	124.032	104.249	119.532
623.482	829.518	3	1	1	122.519	104.249	119.532
623.000	830.395	3	1	1	123.137	104.249	119.532
623.000	831.395	3	1	1	126.778	104.249	119.532
623.000	832.395	3	1	1	129.362	104.249	119.532
623.000	833.395	3	1	1	131.682	104.249	119.532
622.664	834.336	3	1	1	138.910	104.249	119.532
622.000	835.085	3	1	1	127.723	104.249	119.532
621.919	836.081	3	1	1	131.821	104.249	119.532
621.212	836.788	3	1	1	131.948	104.249	119.532
621.000	837.766	3	1	1	127.856	104.249	119.532
621.000	838.766	3	1	1	137.666	104.249	119.532
621.000	839.766	3	1	1	139.655	104.249	119.532
621.000	840.766	3	1	1	136.003	104.249	119.532
621.000	841.766	3	1	1	137.609	104.249	119.532
620.420	842.580	3	1	1	141.134	104.249	119.532
620.000	843.488	3	1	1	129.301	104.249	119.532
620.000	844.488	3	1	1	124.969	104.249	119.532
620.000	845.488	3	1	1	128.701	104.249	119.532
620.000	846.488	3	1	1	133.393	104.249	119.532
620.000	847.488	3	1	1	130.127	104.249	119.532
620.000	848.488	3	1	1	130.209	104.249	119.532
620.000	849.488	3	1	1	135.800	104.249	119.532
620.000	850.488	3	1	1	143.074	104.249	119.532
619.597	851.403	3	1	1	140.458	104.249	119.532
619.000	852.205	3	1	1	146.361	104.249	119.532
619.000	853.205	3	1	1	139.782	104.249	119.532
619.000	854.205	3	1	1	140.556	104.249	119.532
619.000	855.205	3	1	1	146.717	104.249	119.532
619.000	856.205	3	1	1	147.519	104.249	119.532
619.000	857.205	3	1	1	149.068	104.249	119.532
619.000	858.205	3	1	1	142.572	104.249	119.532
619.000	859.205	3	1	1	138.740	104.249	119.532
619.000	860.205	3	1	1	142.379	104.249	119.532
619.000	861.205	3	1	1	139.863	104.249	119.532
619.000	862.205	3	1	1	141.065	104.249	119.532
619.000	863.205	3	1	1	137.338	104.249	119.532
619.000	864.205	3	1	1	150.467	104.249	119.532
619.000	865.205	3	1	1	137.333	104.249	119.532
619.000	866.205	3	1	1	137.297	104.249	119.532
619.000	867.205	3	1	1	136.778	104.249	119.532
619.000	868.205	3	1	1	134.321	104.249	119.532
619.000	869.205	3	1	1	128.962	104.249	119.532
619.000	870.205	3	1	1	129.607	104.249	119.532
619.000	871.205	3	1	1	136.188	104.249	119.532
619.000	872.205	3	1	1	132.179	104.249	119.532
619.000	873.205	3	1	1	130.072	104.249	119.532
619.000	874.205	3	1	1	138.109	104.249	119.532
619.000	875.205	3	1	1	126.625	104.249	119.532
619.000	876.205	3	1	1	137.188	104.249	119.532
619.000	877.205	3	1	1	134.795	104.249	119.532
619.000	878.205	3	1	1	139.551	104.249	119.532
619.000	879.205	3	1	1	136.438	104.249	119.532
619.000	880.205	3	1	1	136.390	104.249	119.532
619.000	881.205	3	1	1	144.906	104.249	119.532
619.000	882.205	3	1	1	144.381	104.249	119.532
619.000	883.205	3	1	1	146.219	104.249	119.532
619.000	884.205	3	1	1	154.447	104.249	119.532
619.000	885.205	3	1	1	149.983	104.249	119.532
619.000	886.205	3	1	1	153.413	104.249	119.532
619.000	887.205	3	1	1	153.542	104.249	119.532
619.000	888.205	3	1	1	162.261	104.249	119.532
619.000	889.205	3	1	1	163.191	104.249	119.532
619.000	890.205	3	1	1	162.862	104.249	119.532
619.000	891.205	3	1	1	174.767	104.249	119.532
619.000	892.205	3	1	1	177.825	104.249	119.532
619.000	893.205	3	1	1	179.883	104.249	119.532
619.000	894.205	3	1	1	168.092	104.249	119.532
619.000	895.205	3	1	1	161.257	104.249	119.532
619.000	896.205	3	1	1	154.311	104.249	119.532
619.000	897.205	3	1	1	139.563	104.249	119.532
619.000	898.205	3	1	1	144.918	104.249	119.532
619.000	899.205	3	1	1	142.520	104.249	119.532
619.000	900.205	3	1	1	139.483	104.249	119.532
619.000	901.205	3	1	1	134.253	104.249	119.532
619.000	902.205	3	1	1	128.623	104.249	119.532
618.812	903.188	3	1	1	132.268	104.249	119.532
618.105	903.895	3	1	1	135.877	104.249	119.532
618.000	904.889	3	1	1	139.733	104.249	119.532
618.000	905.889	3	1	1	126.989	104.249	119.532
618.000	906.889	3	1	1	126.149	104.249	119.532
618.000	907.889	3	1	1	131.242	104.249	119.532
618.000	908.889	3	1	1	124.183	104.249	119.532
618.000	909.889	3	1	1	123.290	104.249	119.532
618.000	910.889	3	1	1	124.206	104.249	119.532
618.000	911.889	3	1	1	121.417	104.249	119.532
618.000	912.889	3	1	1	117.491	104.249	119.532
618.000	913.889	3	1	1	120.517	104.249	119.532
618.000	914.889	3	1	1	125.407	104.249	119.532
618.000	915.889	3	1	1	126.884	104.249	119.532
618.000	916.889	3	1	1	116.370	104.249	119.532
618.000	917.889	3	1	1	122.992	104.249	119.532
618.000	918.889	3	1	1	121.327	104.249	119.532
618.000	919.889	3	1	1	127.247	104.249	119.532
618.000	920.889	3	1	1	123.817	104.249	119.532
618.000	921.889	3	1	1	127.419	104.249	119.532
618.649	922.649	3	1	1	131.652	104.249	119.532
619.000	923.586	3	1	1	129.422	104.249	119.532
619.000	924.586	3	1	1	135.603	104.249	119.532
619.000	925.586	3	1	1	132.774	104.249	119.532
619.000	926.586	3	1	1	134.984	104.249	119.532
619.000	927.586	3	1	1	135.554	104.249	119.532
619.000	928.586	3	1	1	127.021	104.249	119.532
619.469	929.469	3	1	1	127.340	104.249	119.532
620.000	930.317	3	1	1	125.630	104.249	119.532
620.000	931.317	3	1	1	121.548	104.249	119.532
620.000	932.317	3	1	1	129.438	104.249	119.532
620.000	933.317	3	1	1	127.751	104.249	119.532
620.000	934.317	3	1	1	128.482	104.249	119.532
620.000	935.317	3	1	1	124.844	104.249	119.532
620.000	936.317	3	1	1	123.343	104.249	119.532
620.277	937.277	3	1	1	127.083	104.249	119.532
620.984	937.984	3	1	1	124.740	104.249	119.532
621.000	938.984	3	1	1	125.033	104.249	119.532
621.000	939.984	3	1	1	121.069	104.249	119.532
621.000	940.984	3	1	1	117.725	104.249	119.532
621.000	941.984	3	1	1	117.666	104.249	119.532
621.000	942.984	3	1	1	119.645	104.249	119.532
621.000	943.984	3	1	1	119.616	104.249	119.532
621.000	944.984	3	1	1	116.589	104.249	119.532
622.000	945.000	3	1	1	122.189	104.249	119.532
622.000	946.000	3	1	1	127.361	104.249	119.532
622.000	947.000	3	1	1	122.357	104.249	119.532
622.000	948.000	3	1	1	125.684	104.249	119.532
622.000	949.000	3	1	1	123.485	104.249	119.532
622.707	949.707	3	1	1	128.148	104.249	119.532
623.000	950.663	3	1	1	126.739	104.249	119.532
623.000	951.663	3	1	1	123.821	104.249	119.532
623.000	952.663	3	1	1	122.216	104.249	119.532
623.000	953.663	3	1	1	119.901	104.249	119.532
