X	Y	C	Z	T	Intensity	BG	MX
642.000	241.000	1	1	1	111.042	104.460	117.161
642.000	242.000	1	1	1	118.045	104.460	117.161
641.000	242.000	1	1	1	113.979	104.460	117.161
641.000	243.000	1	1	1	122.976	104.460	117.161
640.293	243.707	1	1	1	126.664	104.460	117.161
640.000	244.663	1	1	1	122.718	104.460	117.161
639.482	245.518	1	1	1	121.534	104.460	117.161
639.000	246.395	1	1	1	123.020	104.460	117.161
639.000	247.395	1	1	1	123.594	104.460	117.161
638.204	248.000	1	1	1	125.724	104.460	117.161
638.000	248.979	1	1	1	124.540	104.460	117.161
638.000	249.979	1	1	1	132.856	104.460	117.161
638.000	250.979	1	1	1	132.514	104.460	117.161
638.000	251.979	1	1	1	148.693	104.460	117.161
638.000	252.979	1	1	1	174.148	104.460	117.161
638.000	253.979	1	1	1	230.756	104.460	117.161
638.000	254.979	1	1	1	295.500	104.460	117.161
638.000	255.979	1	1	1	313.342	104.460	117.161
638.000	256.979	1	1	1	251.257	104.460	117.161
638.000	257.979	1	1	1	205.436	104.460	117.161
638.000	258.979	1	1	1	165.462	104.460	117.161
638.000	259.979	1	1	1	148.585	104.460	117.161
638.000	260.979	1	1	1	154.680	104.460	117.161
638.000	261.979	1	1	1	154.781	104.460	117.161
638.000	262.979	1	1	1	144.935	104.460	117.161
638.000	263.979	1	1	1	132.764	104.460	117.161
638.000	264.979	1	1	1	118.672	104.460	117.161
638.000	265.979	1	1	1	117.588	104.460	117.161
638.000	266.979	1	1	1	106.496	104.460	117.161
638.000	267.979	1	1	1	111.756	104.460	117.161
638.000	268.979	1	1	1	112.373	104.460	117.161
638.000	269.979	1	1	1	111.160	104.460	117.161
638.000	270.979	1	1	1	115.689	104.460	117.161
638.000	271.979	1	1	1	124.825	104.460	117.161
638.000	272.979	1	1	1	131.852	104.460	117.161
638.000	273.979	1	1	1	137.344	104.460	117.161
638.000	274.979	1	1	1	143.550	104.460	117.161
638.000	275.979	1	1	1	169.143	104.460	117.161
638.000	276.979	1	1	1	181.999	104.460	117.161
638.000	277.979	1	1	1	230.544	104.460	117.161
638.000	278.979	1	1	1	263.249	104.460	117.161
638.000	279.979	1	1	1	267.582	104.460	117.161
638.000	280.979	1	1	1	233.943	104.460	117.161
638.000	281.979	1	1	1	188.622	104.460	117.161
638.000	282.979	1	1	1	153.351	104.460	117.161
638.000	283.979	1	1	1	129.568	104.460	117.161
638.000	284.979	1	1	1	116.814	104.460	117.161
638.000	285.979	1	1	1	114.754	104.460	117.161
638.000	286.979	1	1	1	112.931	104.460	117.161
638.000	287.979	1	1	1	114.690	104.460	117.161
638.000	288.979	1	1	1	112.113	104.460	117.161
638.000	289.979	1	1	1	118.600	104.460	117.161
638.000	290.979	1	1	1	122.265	104.460	117.161
638.000	291.979	1	1	1	131.763	104.460	117.161
637.303	292.697	1	1	1	137.143	104.460	117.161
637.000	293.649	1	1	1	153.380	104.460	117.161
637.000	294.649	1	1	1	167.675	104.460	117.161
637.000	295.649	1	1	1	187.954	104.460	117.161
637.000	296.649	1	1	1	206.310	104.460	117.161
637.000	297.649	1	1	1	215.408	104.460	117.161
637.000	298.649	1	1	1	215.264	104.460	117.161
637.000	299.649	1	1	1	190.020	104.460	117.161
637.000	300.649	1	1	1	157.100	104.460	117.161
637.000	301.649	1	1	1	136.147	104.460	117.161
637.000	302.649	1	1	1	137.354	104.460	117.161
637.000	303.649	1	1	1	158.339	104.460	117.161
637.000	304.649	1	1	1	174.249	104.460	117.161
637.000	305.649	1	1	1	184.397	104.460	117.161
637.000	306.649	1	1	1	185.964	104.460	117.161
637.000	307.649	1	1	1	195.300	104.460	117.161
637.000	308.649	1	1	1	202.631	104.460	117.161
637.000	309.649	1	1	1	200.271	104.460	117.161
636.699	310.603	1	1	1	194.660	104.460	117.161
636.251	311.497	1	1	1	181.077	104.460	117.161
636.000	312.465	1	1	1	193.646	104.460	117.161
636.000	313.465	1	1	1	220.998	104.460	117.161
636.000	314.465	1	1	1	243.166	104.460	117.161
636.000	315.465	1	1	1	235.456	104.460	117.161
636.000	316.465	1	1	1	221.537	104.460	117.161
636.000	317.465	1	1	1	200.587	104.460	117.161
636.000	318.465	1	1	1	175.453	104.460	117.161
636.000	319.465	1	1	1	171.658	104.460	117.161
636.000	320.465	1	1	1	181.272	104.460	117.161
636.000	321.465	1	1	1	167.396	104.460	117.161
636.000	322.465	1	1	1	144.464	104.460	117.161
636.000	323.465	1	1	1	140.568	104.460	117.161
636.000	324.465	1	1	1	131.457	104.460	117.161
636.000	325.465	1	1	1	124.948	104.460	117.161
636.000	326.465	1	1	1	114.429	104.460	117.161
636.000	327.465	1	1	1	112.186	104.460	117.161
636.000	328.465	1	1	1	115.025	104.460	117.161
635.613	329.387	1	1	1	111.598	104.460	117.161
635.000	330.177	1	1	1	114.842	104.460	117.161
635.000	331.177	1	1	1	114.325	104.460	117.161
635.000	332.177	1	1	1	123.310	104.460	117.161
635.000	333.177	1	1	1	125.645	104.460	117.161
634.836	334.164	1	1	1	126.493	104.460	117.161
634.129	334.871	1	1	1	143.118	104.460	117.161
634.000	335.863	1	1	1	138.973	104.460	117.161
634.000	336.863	1	1	1	137.912	104.460	117.161
634.000	337.863	1	1	1	126.221	104.460	117.161
633.365	338.635	1	1	1	122.558	104.460	117.161
633.000	339.566	1	1	1	119.009	104.460	117.161
633.000	340.566	1	1	1	127.056	104.460	117.161
633.000	341.566	1	1	1	126.094	104.460	117.161
632.544	342.456	1	1	1	131.082	104.460	117.161
632.000	343.295	1	1	1	130.356	104.460	117.161
632.000	344.295	1	1	1	133.193	104.460	117.161
632.000	345.295	1	1	1	144.189	104.460	117.161
632.000	346.295	1	1	1	138.242	104.460	117.161
632.000	347.295	1	1	1	136.419	104.460	117.161
631.857	348.285	1	1	1	130.835	104.460	117.161
631.410	349.179	1	1	1	127.441	104.460	117.161
631.000	350.091	1	1	1	125.084	104.460	117.161
630.955	351.090	1	1	1	121.040	104.460	117.161
630.508	351.985	1	1	1	119.386	104.460	117.161
630.060	352.879	1	1	1	117.302	104.460	117.161
630.000	353.877	1	1	1	113.588	104.460	117.161
630.000	354.877	1	1	1	116.879	104.460	117.161
630.000	355.877	1	1	1	117.205	104.460	117.161
630.000	356.877	1	1	1	117.743	104.460	117.161
630.000	357.877	1	1	1	119.079	104.460	117.161
629.603	358.795	1	1	1	121.267	104.460	117.161
629.155	359.689	1	1	1	124.074	104.460	117.161
629.000	360.677	1	1	1	129.942	104.460	117.161
629.000	361.677	1	1	1	131.807	104.460	117.161
629.000	362.677	1	1	1	134.959	104.460	117.161
629.000	363.677	1	1	1	137.183	104.460	117.161
629.000	364.677	1	1	1	145.681	104.460	117.161
629.000	365.677	1	1	1	164.077	104.460	117.161
629.000	366.677	1	1	1	187.907	104.460	117.161
628.473	367.527	1	1	1	179.677	104.460	117.161
628.000	368.408	1	1	1	154.884	104.460	117.161
628.000	369.408	1	1	1	146.810	104.460	117.161
628.000	370.408	1	1	1	139.529	104.460	117.161
628.000	371.408	1	1	1	128.588	104.460	117.161
628.000	372.408	1	1	1	118.669	104.460	117.161
628.000	373.408	1	1	1	114.709	104.460	117.161
628.000	374.408	1	1	1	106.459	104.460	117.161
628.000	375.408	1	1	1	111.027	104.460	117.161
628.000	376.408	1	1	1	114.638	104.460	117.161
628.000	377.408	1	1	1	119.060	104.460	117.161
627.654	378.346	1	1	1	133.408	104.460	117.161
627.000	379.103	1	1	1	143.265	104.460	117.161
627.000	380.103	1	1	1	153.063	104.460	117.161
627.000	381.103	1	1	1	157.380	104.460	117.161
627.000	382.103	1	1	1	154.579	104.460	117.161
627.000	383.103	1	1	1	140.426	104.460	117.161
627.000	384.103	1	1	1	131.225	104.460	117.161
627.000	385.103	1	1	1	121.974	104.460	117.161
626.902	386.098	1	1	1	119.667	104.460	117.161
626.195	386.805	1	1	1	118.923	104.460	117.161
626.000	387.786	1	1	1	116.769	104.460	117.161
626.000	388.786	1	1	1	117.064	104.460	117.161
626.000	389.786	1	1	1	119.150	104.460	117.161
626.000	390.786	1	1	1	119.850	104.460	117.161
626.000	391.786	1	1	1	117.573	104.460	117.161
626.000	392.786	1	1	1	120.617	104.460	117.161
626.000	393.786	1	1	1	122.972	104.460	117.161
626.000	394.786	1	1	1	120.997	104.460	117.161
626.000	395.786	1	1	1	120.638	104.460	117.161
625.640	396.719	1	1	1	117.601	104.460	117.161
625.193	397.614	1	1	1	114.999	104.460	117.161
625.000	398.595	1	1	1	115.945	104.460	117.161
625.000	399.595	1	1	1	119.818	104.460	117.161
625.000	400.595	1	1	1	120.991	104.460	117.161
625.000	401.595	1	1	1	120.053	104.460	117.161
625.000	402.595	1	1	1	121.149	104.460	117.161
625.000	403.595	1	1	1	127.471	104.460	117.161
625.000	404.595	1	1	1	135.838	104.460	117.161
625.000	405.595	1	1	1	123.214	104.460	117.161
625.000	406.595	1	1	1	125.821	104.460	117.161
625.000	407.595	1	1	1	121.885	104.460	117.161
625.000	408.595	1	1	1	117.242	104.460	117.161
625.000	409.595	1	1	1	126.507	104.460	117.161
625.000	410.595	1	1	1	123.115	104.460	117.161
625.000	411.595	1	1	1	123.154	104.460	117.161
625.000	412.595	1	1	1	114.073	104.460	117.161
624.525	413.475	1	1	1	118.431	104.460	117.161
624.000	414.326	1	1	1	127.211	104.460	117.161
624.000	415.326	1	1	1	145.636	104.460	117.161
624.000	416.326	1	1	1	179.484	104.460	117.161
624.000	417.326	1	1	1	177.336	104.460	117.161
624.000	418.326	1	1	1	155.054	104.460	117.161
624.000	419.326	1	1	1	134.492	104.460	117.161
624.000	420.326	1	1	1	129.297	104.460	117.161
624.000	421.326	1	1	1	118.208	104.460	117.161
624.000	422.326	1	1	1	127.810	104.460	117.161
624.000	423.326	1	1	1	134.516	104.460	117.161
624.000	424.326	1	1	1	126.080	104.460	117.161
624.000	425.326	1	1	1	130.249	104.460	117.161
624.000	426.326	1	1	1	122.377	104.460	117.161
624.000	427.326	1	1	1	133.048	104.460	117.161
623.715	428.285	1	1	1	134.859	104.460	117.161
623.008	428.992	1	1	1	132.451	104.460	117.161
623.000	429.992	1	1	1	142.034	104.460	117.161
623.000	430.992	1	1	1	138.918	104.460	117.161
623.000	431.992	1	1	1	148.782	104.460	117.161
623.000	432.992	1	1	1	160.464	104.460	117.161
623.000	433.992	1	1	1	168.039	104.460	117.161
622.297	434.703	1	1	1	191.247	104.460	117.161
622.000	435.658	1	1	1	210.294	104.460	117.161
622.000	436.658	1	1	1	198.511	104.460	117.161
622.000	437.658	1	1	1	178.803	104.460	117.161
621.695	438.610	1	1	1	176.557	104.460	117.161
621.248	439.505	1	1	1	176.827	104.460	117.161
621.000	440.473	1	1	1	179.605	104.460	117.161
621.000	441.473	1	1	1	159.830	104.460	117.161
620.776	442.448	1	1	1	167.187	104.460	117.161
620.329	443.342	1	1	1	161.761	104.460	117.161
620.000	444.287	1	1	1	160.182	104.460	117.161
620.000	445.287	1	1	1	145.189	104.460	117.161
619.746	446.254	1	1	1	149.430	104.460	117.161
619.039	446.961	1	1	1	163.319	104.460	117.161
619.000	447.960	1	1	1	176.908	104.460	117.161
618.569	448.863	1	1	1	190.648	104.460	117.161
618.122	449.757	1	1	1	206.816	104.460	117.161
618.000	450.750	1	1	1	229.669	104.460	117.161
617.656	451.688	1	1	1	239.406	104.460	117.161
617.209	452.583	1	1	1	257.139	104.460	117.161
617.000	453.561	1	1	1	266.497	104.460	117.161
616.547	454.453	1	1	1	266.159	104.460	117.161
616.000	455.290	1	1	1	235.359	104.460	117.161
616.000	456.290	1	1	1	196.150	104.460	117.161
615.744	457.256	1	1	1	173.255	104.460	117.161
615.037	457.963	1	1	1	142.065	104.460	117.161
615.000	458.963	1	1	1	133.115	104.460	117.161
614.568	459.864	1	1	1	127.542	104.460	117.161
614.121	460.759	1	1	1	126.356	104.460	117.161
614.000	461.751	1	1	1	121.411	104.460	117.161
614.000	462.751	1	1	1	124.240	104.460	117.161
614.000	463.751	1	1	1	120.527	104.460	117.161
613.428	464.572	1	1	1	118.476	104.460	117.161
613.000	465.476	1	1	1	120.729	104.460	117.161
613.000	466.476	1	1	1	131.426	104.460	117.161
613.000	467.476	1	1	1	124.613	104.460	117.161
612.606	468.394	1	1	1	128.117	104.460	117.161
612.000	469.190	1	1	1	127.994	104.460	117.161
612.000	470.190	1	1	1	127.727	104.460	117.161
612.000	471.190	1	1	1	122.318	104.460	117.161
612.000	472.190	1	1	1	118.154	104.460	117.161
612.000	473.190	1	1	1	116.488	104.460	117.161
611.825	474.175	1	1	1	112.958	104.460	117.161
611.118	474.882	1	1	1	112.439	104.460	117.161
611.000	475.875	1	1	1	118.172	104.460	117.161
611.000	476.875	1	1	1	129.844	104.460	117.161
611.000	477.875	1	1	1	150.636	104.460	117.161
611.000	478.875	1	1	1	169.826	104.460	117.161
611.000	479.875	1	1	1	193.541	104.460	117.161
610.604	480.793	1	1	1	203.363	104.460	117.161
610.156	481.687	1	1	1	179.013	104.460	117.161
610.000	482.675	1	1	1	152.403	104.460	117.161
610.000	483.675	1	1	1	143.855	104.460	117.161
610.000	484.675	1	1	1	143.235	104.460	117.161
609.687	485.625	1	1	1	139.537	104.460	117.161
609.240	486.520	1	1	1	121.206	104.460	117.161
609.000	487.490	1	1	1	116.833	104.460	117.161
609.000	488.490	1	1	1	113.837	104.460	117.161
609.000	489.490	1	1	1	114.371	104.460	117.161
608.768	490.463	1	1	1	116.194	104.460	117.161
608.321	491.357	1	1	1	110.254	104.460	117.161
608.000	492.304	1	1	1	114.179	104.460	117.161
608.000	493.304	1	1	1	107.692	104.460	117.161
608.000	494.304	1	1	1	108.474	104.460	117.161
608.000	495.304	1	1	1	109.830	104.460	117.161
607.732	496.268	1	1	1	110.949	104.460	117.161
607.025	496.975	1	1	1	110.711	104.460	117.161
607.000	497.975	1	1	1	107.825	104.460	117.161
607.000	498.975	1	1	1	112.143	104.460	117.161
607.000	499.975	1	1	1	117.742	104.460	117.161
607.000	500.975	1	1	1	115.790	104.460	117.161
606.306	501.694	1	1	1	115.230	104.460	117.161
606.000	502.646	1	1	1	117.347	104.460	117.161
606.000	503.646	1	1	1	109.793	104.460	117.161
606.000	504.646	1	1	1	115.772	104.460	117.161
605.700	505.600	1	1	1	110.203	104.460	117.161
605.253	506.495	1	1	1	111.981	104.460	117.161
605.000	507.462	1	1	1	109.329	104.460	117.161
605.000	508.462	1	1	1	109.039	104.460	117.161
605.000	509.462	1	1	1	114.738	104.460	117.161
605.000	510.462	1	1	1	110.348	104.460	117.161
604.781	511.438	1	1	1	107.506	104.460	117.161
604.334	512.333	1	1	1	113.169	104.460	117.161
604.000	513.275	1	1	1	112.969	104.460	117.161
604.000	514.275	1	1	1	113.679	104.460	117.161
604.000	515.275	1	1	1	115.407	104.460	117.161
604.000	516.275	1	1	1	113.882	104.460	117.161
604.000	517.275	1	1	1	114.289	104.460	117.161
604.000	518.275	1	1	1	121.946	104.460	117.161
604.000	519.275	1	1	1	128.618	104.460	117.161
604.000	520.275	1	1	1	140.660	104.460	117.161
604.000	521.275	1	1	1	151.131	104.460	117.161
604.000	522.275	1	1	1	160.558	104.460	117.161
604.000	523.275	1	1	1	186.682	104.460	117.161
604.000	524.275	1	1	1	216.703	104.460	117.161
604.000	525.275	1	1	1	218.866	104.460	117.161
604.000	526.275	1	1	1	214.273	104.460	117.161
604.000	527.275	1	1	1	204.470	104.460	117.161
604.000	528.275	1	1	1	201.254	104.460	117.161
604.000	529.275	1	1	1	194.835	104.460	117.161
604.000	530.275	1	1	1	179.087	104.460	117.161
604.000	531.275	1	1	1	159.672	104.460	117.161
604.000	532.275	1	1	1	135.993	104.460	117.161
604.000	533.275	1	1	1	123.423	104.460	117.161
604.000	534.275	1	1	1	117.247	104.460	117.161
604.000	535.275	1	1	1	114.693	104.460	117.161
604.000	536.275	1	1	1	112.666	104.460	117.161
604.000	537.275	1	1	1	108.336	104.460	117.161
604.000	538.275	1	1	1	109.556	104.460	117.161
604.000	539.275	1	1	1	111.618	104.460	117.161
604.000	540.275	1	1	1	111.536	104.460	117.161
604.000	541.275	1	1	1	112.000	104.460	117.161
604.000	542.275	1	1	1	112.886	104.460	117.161
603.755	543.245	1	1	1	113.399	104.460	117.161
603.048	543.952	1	1	1	115.191	104.460	117.161
603.000	544.951	1	1	1	112.385	104.460	117.161
603.000	545.951	1	1	1	116.446	104.460	117.161
603.000	546.951	1	1	1	120.697	104.460	117.161
603.000	547.951	1	1	1	126.757	104.460	117.161
603.000	548.951	1	1	1	115.585	104.460	117.161
603.000	549.951	1	1	1	119.788	104.460	117.161
602.573	550.855	1	1	1	115.159	104.460	117.161
602.125	551.749	1	1	1	121.016	104.460	117.161
602.000	552.741	1	1	1	125.820	104.460	117.161
602.000	553.741	1	1	1	128.945	104.460	117.161
602.000	554.741	1	1	1	152.751	104.460	117.161
602.000	555.741	1	1	1	174.532	104.460	117.161
602.000	556.741	1	1	1	185.603	104.460	117.161
602.000	557.741	1	1	1	171.890	104.460	117.161
602.000	558.741	1	1	1	171.013	104.460	117.161
602.000	559.741	1	1	1	155.630	104.460	117.161
602.000	560.741	1	1	1	162.680	104.460	117.161
602.000	561.741	1	1	1	166.837	104.460	117.161
602.000	562.741	1	1	1	174.029	104.460	117.161
602.000	563.741	1	1	1	155.814	104.460	117.161
602.000	564.741	1	1	1	144.790	104.460	117.161
602.000	565.741	1	1	1	132.856	104.460	117.161
602.000	566.741	1	1	1	138.705	104.460	117.161
602.000	567.741	1	1	1	129.449	104.460	117.161
602.000	568.741	1	1	1	135.045	104.460	117.161
602.000	569.741	1	1	1	135.964	104.460	117.161
602.000	570.741	1	1	1	137.584	104.460	117.161
602.000	571.741	1	1	1	139.550	104.460	117.161
602.000	572.741	1	1	1	130.661	104.460	117.161
601.434	573.566	1	1	1	132.791	104.460	117.161
601.000	574.467	1	1	1	149.371	104.460	117.161
601.000	575.467	1	1	1	156.431	104.460	117.161
601.000	576.467	1	1	1	189.482	104.460	117.161
601.000	577.467	1	1	1	220.263	104.460	117.161
601.000	578.467	1	1	1	227.925	104.460	117.161
601.000	579.467	1	1	1	198.220	104.460	117.161
601.000	580.467	1	1	1	169.468	104.460	117.161
601.000	581.467	1	1	1	147.399	104.460	117.161
600.612	582.388	1	1	1	132.002	104.460	117.161
600.000	583.179	1	1	1	127.204	104.460	117.161
600.000	584.179	1	1	1	124.836	104.460	117.161
600.000	585.179	1	1	1	129.227	104.460	117.161
600.000	586.179	1	1	1	132.669	104.460	117.161
600.000	587.179	1	1	1	138.886	104.460	117.161
600.000	588.179	1	1	1	148.981	104.460	117.161
599.912	589.175	1	1	1	160.340	104.460	117.161
599.465	590.070	1	1	1	158.587	104.460	117.161
599.018	590.964	1	1	1	156.223	104.460	117.161
599.000	591.964	1	1	1	136.739	104.460	117.161
599.000	592.964	1	1	1	128.737	104.460	117.161
599.000	593.964	1	1	1	124.153	104.460	117.161
599.000	594.964	1	1	1	125.878	104.460	117.161
598.311	595.689	1	1	1	126.647	104.460	117.161
598.000	596.639	1	1	1	121.887	104.460	117.161
598.000	597.639	1	1	1	124.535	104.460	117.161
598.000	598.639	1	1	1	118.066	104.460	117.161
598.000	599.639	1	1	1	121.118	104.460	117.161
598.000	600.639	1	1	1	127.009	104.460	117.161
598.000	601.639	1	1	1	129.609	104.460	117.161
598.000	602.639	1	1	1	135.100	104.460	117.161
598.000	603.639	1	1	1	145.074	104.460	117.161
598.000	604.639	1	1	1	146.903	104.460	117.161
598.000	605.639	1	1	1	158.365	104.460	117.161
598.000	606.639	1	1	1	157.427	104.460	117.161
598.000	607.639	1	1	1	145.846	104.460	117.161
598.000	608.639	1	1	1	140.891	104.460	117.161
598.000	609.639	1	1	1	137.293	104.460	117.161
598.000	610.639	1	1	1	142.409	104.460	117.161
598.000	611.639	1	1	1	148.889	104.460	117.161
598.000	612.639	1	1	1	149.314	104.460	117.161
598.000	613.639	1	1	1	163.684	104.460	117.161
598.000	614.639	1	1	1	170.454	104.460	117.161
597.497	615.503	1	1	1	179.666	104.460	117.161
597.000	616.371	1	1	1	193.246	104.460	117.161
597.000	617.371	1	1	1	196.888	104.460	117.161
597.000	618.371	1	1	1	174.524	104.460	117.161
597.000	619.371	1	1	1	160.943	104.460	117.161
597.000	620.371	1	1	1	139.854	104.460	117.161
597.000	621.371	1	1	1	123.281	104.460	117.161
597.000	622.371	1	1	1	123.050	104.460	117.161
597.000	623.371	1	1	1	119.703	104.460	117.161
597.000	624.371	1	1	1	112.111	104.460	117.161
597.000	625.371	1	1	1	113.285	104.460	117.161
597.000	626.371	1	1	1	116.512	104.460	117.161
597.000	627.371	1	1	1	124.541	104.460	117.161
597.000	628.371	1	1	1	140.031	104.460	117.161
597.000	629.371	1	1	1	145.147	104.460	117.161
597.000	630.371	1	1	1	144.230	104.460	117.161
597.000	631.371	1	1	1	138.277	104.460	117.161
597.000	632.371	1	1	1	127.651	104.460	117.161
596.822	633.355	1	1	1	123.486	104.460	117.161
596.375	634.250	1	1	1	120.761	104.460	117.161
596.000	635.177	1	1	1	118.937	104.460	117.161
596.000	636.177	1	1	1	118.152	104.460	117.161
596.000	637.177	1	1	1	111.352	104.460	117.161
596.000	638.177	1	1	1	110.935	104.460	117.161
596.000	639.177	1	1	1	115.920	104.460	117.161
596.000	640.177	1	1	1	115.656	104.460	117.161
596.000	641.177	1	1	1	114.100	104.460	117.161
595.837	642.163	1	1	1	118.665	104.460	117.161
595.129	642.871	1	1	1	120.711	104.460	117.161
595.000	643.862	1	1	1	124.205	104.460	117.161
595.000	644.862	1	1	1	131.988	104.460	117.161
595.000	645.862	1	1	1	130.861	104.460	117.161
595.000	646.862	1	1	1	136.188	104.460	117.161
595.000	647.862	1	1	1	145.267	104.460	117.161
594.365	648.635	1	1	1	139.648	104.460	117.161
594.000	649.566	1	1	1	142.944	104.460	117.161
594.000	650.566	1	1	1	144.508	104.460	117.161
594.000	651.566	1	1	1	139.366	104.460	117.161
594.000	652.566	1	1	1	135.588	104.460	117.161
594.000	653.566	1	1	1	133.724	104.460	117.161
594.000	654.566	1	1	1	131.834	104.460	117.161
593.544	655.456	1	1	1	127.410	104.460	117.161
593.000	656.295	1	1	1	129.734	104.460	117.161
593.000	657.295	1	1	1	141.734	104.460	117.161
593.000	658.295	1	1	1	153.553	104.460	117.161
593.709	659.000	1	1	1	171.277	104.460	117.161
					157.566		
