X	Y	C	Z	T	Intensity	BG	MX
581.000	768.000	2	1	1	113.927	100.788	301.441
580.293	768.707	2	1	1	115.768	100.788	301.441
580.000	769.663	2	1	1	118.981	100.788	301.441
580.000	770.663	2	1	1	117.559	100.788	301.441
579.482	771.518	2	1	1	116.081	100.788	301.441
579.000	772.395	2	1	1	113.098	100.788	301.441
579.000	773.395	2	1	1	109.906	100.788	301.441
579.000	774.395	2	1	1	111.649	100.788	301.441
579.000	775.395	2	1	1	112.310	100.788	301.441
579.000	776.395	2	1	1	114.192	100.788	301.441
579.000	777.395	2	1	1	110.166	100.788	301.441
579.000	778.395	2	1	1	108.073	100.788	301.441
579.000	779.395	2	1	1	110.813	100.788	301.441
579.000	780.395	2	1	1	114.876	100.788	301.441
579.000	781.395	2	1	1	111.812	100.788	301.441
579.000	782.395	2	1	1	112.196	100.788	301.441
579.000	783.395	2	1	1	115.929	100.788	301.441
579.000	784.395	2	1	1	113.661	100.788	301.441
579.000	785.395	2	1	1	111.585	100.788	301.441
579.000	786.395	2	1	1	112.719	100.788	301.441
579.000	787.395	2	1	1	114.890	100.788	301.441
579.000	788.395	2	1	1	112.059	100.788	301.441
579.000	789.395	2	1	1	116.497	100.788	301.441
579.000	790.395	2	1	1	117.091	100.788	301.441
579.000	791.395	2	1	1	110.564	100.788	301.441
579.000	792.395	2	1	1	112.826	100.788	301.441
579.000	793.395	2	1	1	114.060	100.788	301.441
579.000	794.395	2	1	1	115.211	100.788	301.441
579.000	795.395	2	1	1	110.485	100.788	301.441
579.000	796.395	2	1	1	108.714	100.788	301.441
579.000	797.395	2	1	1	107.513	100.788	301.441
579.000	798.395	2	1	1	107.982	100.788	301.441
579.000	799.395	2	1	1	110.729	100.788	301.441
579.000	800.395	2	1	1	108.217	100.788	301.441
578.664	801.336	2	1	1	109.571	100.788	301.441
578.000	802.085	2	1	1	108.350	100.788	301.441
578.000	803.085	2	1	1	108.334	100.788	301.441
578.000	804.085	2	1	1	108.093	100.788	301.441
578.000	805.085	2	1	1	106.527	100.788	301.441
578.000	806.085	2	1	1	109.530	100.788	301.441
578.000	807.085	2	1	1	119.723	100.788	301.441
578.000	808.085	2	1	1	112.082	100.788	301.441
578.000	809.085	2	1	1	106.827	100.788	301.441
577.919	810.081	2	1	1	114.634	100.788	301.441
577.212	810.788	2	1	1	112.704	100.788	301.441
577.000	811.766	2	1	1	112.473	100.788	301.441
577.000	812.766	2	1	1	112.988	100.788	301.441
577.000	813.766	2	1	1	110.593	100.788	301.441
577.000	814.766	2	1	1	110.805	100.788	301.441
577.000	815.766	2	1	1	107.517	100.788	301.441
577.000	816.766	2	1	1	111.256	100.788	301.441
576.755	817.735	2	1	1	107.723	100.788	301.441
576.439	818.684	2	1	1	107.305	100.788	301.441
576.122	819.633	2	1	1	108.614	100.788	301.441
576.000	820.625	2	1	1	107.447	100.788	301.441
576.000	821.625	2	1	1	111.160	100.788	301.441
576.000	822.625	2	1	1	109.387	100.788	301.441
576.000	823.625	2	1	1	108.683	100.788	301.441
576.000	824.625	2	1	1	109.513	100.788	301.441
575.709	825.582	2	1	1	110.932	100.788	301.441
575.262	826.476	2	1	1	109.367	100.788	301.441
575.000	827.441	2	1	1	109.020	100.788	301.441
575.000	828.441	2	1	1	109.305	100.788	301.441
575.000	829.441	2	1	1	111.834	100.788	301.441
575.000	830.441	2	1	1	109.158	100.788	301.441
575.000	831.441	2	1	1	108.355	100.788	301.441
575.000	832.441	2	1	1	111.525	100.788	301.441
574.790	833.419	2	1	1	114.128	100.788	301.441
574.343	834.314	2	1	1	114.563	100.788	301.441
574.000	835.253	2	1	1	112.654	100.788	301.441
574.000	836.253	2	1	1	115.874	100.788	301.441
574.000	837.253	2	1	1	115.401	100.788	301.441
574.000	838.253	2	1	1	112.428	100.788	301.441
574.000	839.253	2	1	1	111.496	100.788	301.441
574.000	840.253	2	1	1	107.015	100.788	301.441
574.000	841.253	2	1	1	105.999	100.788	301.441
574.000	842.253	2	1	1	107.219	100.788	301.441
573.773	843.227	2	1	1	109.178	100.788	301.441
573.066	843.934	2	1	1	107.056	100.788	301.441
573.000	844.932	2	1	1	104.765	100.788	301.441
573.000	845.932	2	1	1	106.005	100.788	301.441
573.000	846.932	2	1	1	109.648	100.788	301.441
573.000	847.932	2	1	1	109.461	100.788	301.441
573.000	848.932	2	1	1	117.250	100.788	301.441
572.328	849.672	2	1	1	109.194	100.788	301.441
572.000	850.617	2	1	1	106.643	100.788	301.441
572.000	851.617	2	1	1	110.123	100.788	301.441
572.000	852.617	2	1	1	107.203	100.788	301.441
571.511	853.489	2	1	1	104.212	100.788	301.441
571.000	854.349	2	1	1	113.505	100.788	301.441
571.000	855.349	2	1	1	110.970	100.788	301.441
571.000	856.349	2	1	1	110.009	100.788	301.441
571.000	857.349	2	1	1	110.331	100.788	301.441
570.698	858.302	2	1	1	106.027	100.788	301.441
570.000	859.018	2	1	1	107.124	100.788	301.441
570.000	860.018	2	1	1	109.312	100.788	301.441
570.000	861.018	2	1	1	109.459	100.788	301.441
570.000	862.018	2	1	1	107.166	100.788	301.441
569.982	863.018	2	1	1	112.936	100.788	301.441
569.275	863.725	2	1	1	105.891	100.788	301.441
569.000	864.687	2	1	1	104.556	100.788	301.441
569.000	865.687	2	1	1	105.306	100.788	301.441
568.683	866.635	2	1	1	110.595	100.788	301.441
568.235	867.529	2	1	1	110.326	100.788	301.441
568.000	868.501	2	1	1	111.415	100.788	301.441
568.000	869.501	2	1	1	109.064	100.788	301.441
567.588	870.412	2	1	1	109.501	100.788	301.441
567.000	871.221	2	1	1	105.603	100.788	301.441
567.000	872.221	2	1	1	103.737	100.788	301.441
566.799	873.201	2	1	1	107.675	100.788	301.441
566.092	873.908	2	1	1	105.510	100.788	301.441
566.000	874.904	2	1	1	106.874	100.788	301.441
566.000	875.904	2	1	1	104.958	100.788	301.441
565.343	876.657	2	1	1	106.120	100.788	301.441
565.000	877.597	2	1	1	109.426	100.788	301.441
564.721	878.557	2	1	1	108.497	100.788	301.441
564.274	879.452	2	1	1	107.771	100.788	301.441
564.000	880.413	2	1	1	108.314	100.788	301.441
563.650	881.350	2	1	1	109.287	100.788	301.441
563.000	882.110	2	1	1	109.007	100.788	301.441
562.895	883.105	2	1	1	107.319	100.788	301.441
562.188	883.812	2	1	1	107.512	100.788	301.441
562.000	884.794	2	1	1	103.912	100.788	301.441
562.000	885.794	2	1	1	104.978	100.788	301.441
562.000	886.794	2	1	1	106.491	100.788	301.441
562.000	887.794	2	1	1	109.158	100.788	301.441
561.404	888.596	2	1	1	105.907	100.788	301.441
561.000	889.511	2	1	1	108.433	100.788	301.441
561.000	890.511	2	1	1	107.590	100.788	301.441
561.000	891.511	2	1	1	104.671	100.788	301.441
561.000	892.511	2	1	1	107.564	100.788	301.441
560.759	893.482	2	1	1	108.899	100.788	301.441
560.312	894.376	2	1	1	106.649	100.788	301.441
560.000	895.327	2	1	1	107.179	100.788	301.441
560.000	896.327	2	1	1	106.340	100.788	301.441
560.000	897.327	2	1	1	106.842	100.788	301.441
560.000	898.327	2	1	1	108.823	100.788	301.441
560.000	899.327	2	1	1	106.421	100.788	301.441
560.000	900.327	2	1	1	108.999	100.788	301.441
560.000	901.327	2	1	1	108.332	100.788	301.441
559.715	902.285	2	1	1	107.368	100.788	301.441
559.008	902.992	2	1	1	110.064	100.788	301.441
559.000	903.992	2	1	1	106.988	100.788	301.441
559.000	904.992	2	1	1	108.966	100.788	301.441
559.000	905.992	2	1	1	107.022	100.788	301.441
559.000	906.992	2	1	1	112.280	100.788	301.441
559.000	907.992	2	1	1	108.696	100.788	301.441
